# source : skycalc web-ui
# author : Kieran Leschinski
# date_created : 2020-05-23
# location : la silla
# airmass : 1.2
# pwv : 10
# pwv_unit : mm
# altitude : 2400
# season : entire year
# period : entire night
# area : 1.52
# area_unit : m2
# action : transmission
# emission_unit : ph s-1 m-2 um-1 arcsec-2
# wavelength_unit : angstrom
#
wavelength	transmission	emission
300	        0.0172	        11.99
301	        0.0249	        17.12
302	        0.0339	        24.62
303	        0.0492	        39.80
304	        0.0591	        51.77
305	        0.0806	        70.45
306	        0.0956	        81.60
307	        0.1150	        98.41
308	        0.1350	        119.91
309	        0.1495	        124.51
310	        0.1818	        149.01
311	        0.1960	        182.07
312	        0.2181	        208.42
313	        0.2404	        222.27
314	        0.2495	        240.11
315	        0.2787	        283.67
316	        0.2865	        246.43
317	        0.3085	        283.34
318	        0.3151	        291.75
319	        0.3484	        306.51
320	        0.3335	        306.68
321	        0.3754	        382.86
322	        0.3620	        332.85
323	        0.3773	        313.34
324	        0.4092	        348.17
325	        0.3867	        353.56
326	        0.4156	        429.91
327	        0.4295	        461.62
328	        0.4113	        419.42
329	        0.4428	        461.36
330	        0.4513	        514.15
331	        0.4418	        460.72
332	        0.4598	        447.55
333	        0.4662	        443.49
334	        0.4619	        423.12
335	        0.4770	        436.23
336	        0.4834	        414.45
337	        0.4835	        416.77
338	        0.4886	        442.45
339	        0.4964	        431.46
340	        0.4982	        436.24
341	        0.5033	        434.04
342	        0.5088	        434.17
343	        0.5124	        435.98
344	        0.5131	        406.47
345	        0.5200	        401.68
346	        0.5248	        435.44
347	        0.5291	        408.12
348	        0.5327	        441.14
349	        0.5368	        433.94
350	        0.5404	        426.04
351	        0.5441	        439.26
352	        0.5470	        407.95
353	        0.5511	        403.13
354	        0.5548	        438.58
355	        0.5581	        468.22
356	        0.5614	        449.61
357	        0.5644	        379.70
358	        0.5675	        336.29
359	        0.5705	        352.26
360	        0.5733	        405.49
361	        0.5767	        390.84
362	        0.5807	        419.57
363	        0.5847	        434.28
364	        0.5884	        442.93
365	        0.5918	        444.96
366	        0.5951	        478.67
367	        0.5983	        492.22
368	        0.6014	        471.09
369	        0.6045	        470.96
370	        0.6076	        504.22
371	        0.6106	        483.57
372	        0.6136	        467.95
373	        0.6166	        428.31
374	        0.6195	        431.10
375	        0.6224	        420.85
376	        0.6252	        451.13
377	        0.6278	        479.47
378	        0.6303	        529.61
379	        0.6327	        501.88
380	        0.6353	        464.28
381	        0.6382	        469.56
382	        0.6414	        430.37
383	        0.6445	        365.58
384	        0.6474	        366.05
385	        0.6501	        424.05
386	        0.6528	        418.25
387	        0.6554	        414.76
388	        0.6580	        412.83
389	        0.6606	        438.99
390	        0.6631	        481.71
391	        0.6657	        545.56
392	        0.6682	        506.15
393	        0.6706	        376.44
394	        0.6731	        346.63
395	        0.6755	        483.05
396	        0.6779	        473.20
397	        0.6801	        378.93
398	        0.6825	        490.28
399	        0.6848	        632.42
400	        0.6871	        660.50
401	        0.6896	        689.31
402	        0.6919	        704.02
403	        0.6943	        689.45
404	        0.6967	        667.46
405	        0.6990	        683.16
406	        0.7013	        665.99
407	        0.7036	        647.00
408	        0.7058	        669.61
409	        0.7080	        682.20
410	        0.7102	        639.56
411	        0.7124	        618.72
412	        0.7146	        676.82
413	        0.7167	        653.04
414	        0.7189	        625.84
415	        0.7210	        608.36
416	        0.7231	        636.28
417	        0.7251	        653.14
418	        0.7271	        598.90
419	        0.7292	        600.69
420	        0.7312	        605.06
421	        0.7332	        619.36
422	        0.7352	        599.20
423	        0.7371	        573.74
424	        0.7390	        603.45
425	        0.7409	        613.16
426	        0.7428	        590.59
427	        0.7447	        574.89
428	        0.7466	        552.53
429	        0.7484	        546.17
430	        0.7503	        485.99
431	        0.7521	        482.80
432	        0.7538	        590.87
433	        0.7555	        580.30
434	        0.7573	        591.39
435	        0.7591	        582.59
436	        0.7608	        615.69
437	        0.7625	        642.95
438	        0.7642	        591.10
439	        0.7658	        576.23
440	        0.7673	        614.30
441	        0.7688	        637.78
442	        0.7702	        666.72
443	        0.7712	        658.64
444	        0.7732	        649.96
445	        0.7747	        645.70
446	        0.7763	        624.35
447	        0.7781	        653.18
448	        0.7798	        674.53
449	        0.7814	        659.09
450	        0.7829	        678.23
451	        0.7844	        696.00
452	        0.7860	        669.38
453	        0.7875	        643.68
454	        0.7889	        657.16
455	        0.7904	        659.68
456	        0.7917	        665.64
457	        0.7929	        676.62
458	        0.7942	        672.99
459	        0.7954	        649.37
460	        0.7965	        651.94
461	        0.7978	        657.59
462	        0.7991	        663.93
463	        0.8004	        664.58
464	        0.8018	        645.47
465	        0.8032	        639.80
466	        0.8046	        643.34
467	        0.8057	        635.64
468	        0.8068	        654.15
469	        0.8077	        640.32
470	        0.8085	        628.80
471	        0.8096	        626.60
472	        0.8105	        655.69
473	        0.8113	        654.70
474	        0.8120	        653.59
475	        0.8123	        661.67
476	        0.8122	        647.71
477	        0.8124	        648.24
478	        0.8135	        662.04
479	        0.8151	        657.43
480	        0.8168	        665.17
481	        0.8185	        665.21
482	        0.8201	        672.26
483	        0.8216	        659.48
484	        0.8231	        649.10
485	        0.8244	        624.91
486	        0.8258	        579.74
487	        0.8270	        560.04
488	        0.8281	        606.99
489	        0.8290	        623.07
490	        0.8299	        634.94
491	        0.8308	        635.43
492	        0.8318	        612.12
493	        0.8327	        611.24
494	        0.8336	        629.17
495	        0.8345	        644.21
496	        0.8353	        623.80
497	        0.8359	        639.11
498	        0.8365	        622.83
499	        0.8369	        603.81
500	        0.8371	        609.10
501	        0.8373	        584.12
502	        0.8372	        582.62
503	        0.8368	        599.39
504	        0.8334	        596.43
505	        0.8379	        599.76
506	        0.8379	        616.99
507	        0.8387	        605.81
508	        0.8403	        598.54
509	        0.8419	        600.72
510	        0.8433	        602.59
511	        0.8448	        613.44
512	        0.8458	        609.70
513	        0.8466	        586.90
514	        0.8472	        587.13
515	        0.8478	        591.81
516	        0.8484	        573.93
517	        0.8490	        539.78
518	        0.8496	        542.65
519	        0.8502	        560.64
520	        0.8507	        691.45
521	        0.8511	        588.52
522	        0.8514	        592.74
523	        0.8516	        597.45
524	        0.8514	        615.23
525	        0.8514	        611.74
526	        0.8516	        604.06
527	        0.8514	        547.93
528	        0.8515	        591.53
529	        0.8515	        593.46
530	        0.8516	        610.38
531	        0.8518	        616.48
532	        0.8522	        591.18
533	        0.8527	        587.33
534	        0.8534	        591.01
535	        0.8543	        595.37
536	        0.8552	        605.43
537	        0.8559	        584.46
538	        0.8566	        588.11
539	        0.8570	        584.92
540	        0.8571	        566.63
541	        0.8565	        565.13
542	        0.8566	        578.11
543	        0.8579	        573.89
544	        0.8573	        582.30
545	        0.8582	        587.55
546	        0.8578	        591.55
547	        0.8589	        587.15
548	        0.8597	        585.23
549	        0.8604	        596.12
550	        0.8608	        596.61
551	        0.8613	        589.04
552	        0.8618	        586.11
553	        0.8621	        582.93
554	        0.8624	        600.71
555	        0.8626	        609.26
556	        0.8627	        588.19
557	        0.8627	        606.44
558	        0.8627	        4761.67
559	        0.8625	        590.60
560	        0.8623	        586.24
561	        0.8620	        610.11
562	        0.8617	        589.41
563	        0.8614	        614.56
564	        0.8612	        596.03
565	        0.8609	        597.95
566	        0.8606	        579.57
567	        0.8601	        601.50
568	        0.8588	        593.14
569	        0.8551	        582.92
570	        0.8558	        588.40
571	        0.8575	        576.64
572	        0.8553	        590.58
573	        0.8553	        601.37
574	        0.8553	        598.88
575	        0.8551	        595.07
576	        0.8557	        590.51
577	        0.8565	        594.28
578	        0.8580	        590.60
579	        0.8598	        583.29
580	        0.8620	        592.80
581	        0.8643	        597.14
582	        0.8663	        602.44
583	        0.8681	        605.32
584	        0.8693	        603.48
585	        0.8703	        597.79
586	        0.8708	        588.94
587	        0.8705	        714.55
588	        0.8649	        591.39
589	        0.8523	        1216.85
590	        0.8536	        920.26
591	        0.8607	        607.29
592	        0.8559	        640.00
593	        0.8604	        693.63
594	        0.8594	        574.09
595	        0.8571	        596.75
596	        0.8644	        670.31
597	        0.8641	        597.79
598	        0.8666	        613.84
599	        0.8684	        571.60
600	        0.8708	        585.16
601	        0.8727	        592.48
602	        0.8733	        568.55
603	        0.8742	        578.06
604	        0.8753	        591.16
605	        0.8760	        578.19
606	        0.8768	        576.14
607	        0.8777	        581.90
608	        0.8787	        574.73
609	        0.8797	        572.25
610	        0.8807	        573.48
611	        0.8816	        569.59
612	        0.8826	        569.24
613	        0.8835	        560.31
614	        0.8843	        584.07
615	        0.8851	        591.17
616	        0.8858	        563.03
617	        0.8865	        592.91
618	        0.8872	        578.54
619	        0.8877	        584.52
620	        0.8881	        603.42
621	        0.8885	        577.76
622	        0.8888	        603.79
623	        0.8890	        555.76
624	        0.8892	        790.74
625	        0.8893	        600.31
626	        0.8892	        724.62
627	        0.8882	        621.39
628	        0.8619	        554.22
629	        0.8785	        672.66
630	        0.8784	        3626.49
631	        0.8867	        717.00
632	        0.8883	        584.06
633	        0.8918	        729.29
634	        0.8942	        541.28
635	        0.8956	        573.65
636	        0.8973	        630.37
637	        0.8987	        1546.80
638	        0.9005	        561.97
639	        0.9016	        582.79
640	        0.9029	        534.14
641	        0.9039	        529.11
642	        0.9050	        570.14
643	        0.9054	        530.75
644	        0.9065	        530.30
645	        0.9064	        536.83
646	        0.9037	        538.00
647	        0.8975	        732.77
648	        0.8915	        533.82
649	        0.8925	        503.50
650	        0.9040	        744.19
651	        0.9066	        589.38
652	        0.8933	        573.69
653	        0.9063	        682.50
654	        0.9086	        519.32
655	        0.9013	        567.61
656	        0.9085	        709.60
657	        0.9080	        518.84
658	        0.9113	        655.12
659	        0.9135	        517.70
660	        0.9152	        545.30
661	        0.9173	        589.95
662	        0.9186	        518.56
663	        0.9189	        532.47
664	        0.9196	        546.77
665	        0.9203	        518.70
666	        0.9210	        527.93
667	        0.9217	        522.32
668	        0.9225	        509.61
669	        0.9230	        510.23
670	        0.9237	        514.47
671	        0.9242	        511.80
672	        0.9248	        508.38
673	        0.9254	        503.98
674	        0.9259	        509.65
675	        0.9264	        504.36
676	        0.9269	        496.25
677	        0.9274	        496.30
678	        0.9279	        494.33
679	        0.9283	        503.77
680	        0.9287	        491.52
681	        0.9291	        492.04
682	        0.9293	        490.98
683	        0.9295	        833.29
684	        0.9299	        794.54
685	        0.9305	        491.58
686	        0.9305	        533.56
687	        0.7314	        878.44
688	        0.8102	        477.83
689	        0.8177	        523.44
690	        0.8315	        534.12
691	        0.8695	        582.85
692	        0.8897	        454.81
693	        0.8895	        720.76
694	        0.8813	        566.60
695	        0.9004	        754.21
696	        0.8955	        468.30
697	        0.9277	        562.56
698	        0.9275	        648.58
699	        0.9085	        466.53
700	        0.9105	        470.11
701	        0.9096	        576.27
702	        0.9141	        445.41
703	        0.9122	        448.53
704	        0.9215	        483.32
705	        0.9221	        549.86
706	        0.9278	        486.30
707	        0.9285	        495.96
708	        0.9288	        508.42
709	        0.9335	        506.20
710	        0.9324	        460.44
711	        0.9337	        466.79
712	        0.9353	        460.87
713	        0.9347	        491.80
714	        0.9336	        478.31
715	        0.9282	        500.31
716	        0.9264	        473.39
717	        0.8563	        436.28
718	        0.8119	        428.77
719	        0.7684	        370.38
720	        0.7883	        383.78
721	        0.8475	        405.18
722	        0.9166	        447.00
723	        0.8682	        440.00
724	        0.8218	        1197.40
725	        0.8222	        1067.24
726	        0.8534	        583.35
727	        0.8487	        471.05
728	        0.8294	        1455.78
729	        0.8546	        864.53
730	        0.8826	        541.09
731	        0.8515	        693.14
732	        0.8883	        1263.77
733	        0.9169	        794.34
734	        0.9234	        1453.73
735	        0.9210	        499.67
736	        0.9239	        785.45
737	        0.9226	        1280.92
738	        0.9359	        482.53
739	        0.9330	        696.15
740	        0.9403	        930.88
741	        0.9432	        462.89
742	        0.9454	        481.18
743	        0.9465	        764.11
744	        0.9478	        717.12
745	        0.9487	        458.98
746	        0.9488	        501.82
747	        0.9493	        701.77
748	        0.9496	        804.65
749	        0.9500	        666.75
750	        0.9502	        533.42
751	        0.9506	        449.48
752	        0.9509	        571.97
753	        0.9513	        1326.14
754	        0.9516	        510.53
755	        0.9520	        465.35
756	        0.9522	        600.99
757	        0.9525	        921.83
758	        0.9527	        504.89
759	        0.9508	        606.71
760	        0.3786	        335.57
761	        0.2807	        148.94
762	        0.6785	        487.34
763	        0.4496	        420.06
764	        0.5794	        305.32
765	        0.6634	        327.77
766	        0.7597	        586.91
767	        0.8429	        395.78
768	        0.9117	        455.12
769	        0.9287	        603.04
770	        0.9445	        585.47
771	        0.9516	        1376.27
772	        0.9533	        1753.87
773	        0.9539	        848.13
774	        0.9544	        608.80
775	        0.9548	        2038.93
776	        0.9550	        1176.73
777	        0.9552	        528.42
778	        0.9553	        1085.20
779	        0.9554	        598.37
780	        0.9555	        1682.52
781	        0.9558	        993.16
782	        0.9558	        2068.68
783	        0.9560	        525.92
784	        0.9557	        946.28
785	        0.9555	        740.32
786	        0.9549	        2628.32
787	        0.9486	        1297.22
788	        0.9472	        1089.81
789	        0.9434	        915.28
790	        0.9316	        556.13
791	        0.9416	        722.11
792	        0.9429	        3102.69
793	        0.9412	        1095.15
794	        0.9558	        540.04
795	        0.9527	        985.94
796	        0.9371	        476.15
797	        0.9377	        2055.03
798	        0.9516	        1185.62
799	        0.9473	        531.75
800	        0.9423	        2092.01
801	        0.9416	        512.84
802	        0.9419	        954.32
803	        0.9406	        1808.05
804	        0.9432	        516.61
805	        0.9464	        782.64
806	        0.9532	        1024.44
807	        0.9512	        504.88
808	        0.9530	        537.57
809	        0.9479	        536.94
810	        0.9426	        792.86
811	        0.9373	        570.65
812	        0.9241	        486.33
813	        0.9136	        508.83
814	        0.8480	        533.33
815	        0.8423	        535.39
816	        0.7968	        415.65
817	        0.8145	        423.87
818	        0.8064	        417.51
819	        0.8682	        485.48
820	        0.8339	        477.99
821	        0.9266	        513.87
822	        0.9097	        492.93
823	        0.6973	        362.90
824	        0.8914	        499.69
825	        0.9091	        520.59
826	        0.8853	        489.53
827	        0.9150	        496.77
828	        0.8254	        1619.47
829	        0.8905	        1894.26
830	        0.8815	        2218.96
831	        0.8877	        968.65
832	        0.8653	        529.05
833	        0.9297	        505.01
834	        0.9049	        542.68
835	        0.9467	        4292.03
836	        0.9221	        1728.65
837	        0.9500	        955.84
838	        0.9424	        1434.05
839	        0.9502	        581.45
840	        0.9530	        3288.19
841	        0.9496	        535.65
842	        0.9544	        1500.64
843	        0.9588	        3298.38
844	        0.9558	        594.17
845	        0.9613	        1464.36
846	        0.9616	        589.84
847	        0.9641	        2827.20
848	        0.9612	        606.40
849	        0.9620	        545.27
850	        0.9627	        1279.76
851	        0.9587	        1700.28
852	        0.9614	        587.14
853	        0.9628	        554.85
854	        0.9606	        1521.62
855	        0.9641	        975.79
856	        0.9628	        551.00
857	        0.9645	        579.92
858	        0.9645	        662.55
859	        0.9649	        686.47
860	        0.9661	        745.82
861	        0.9660	        632.24
862	        0.9665	        1042.09
863	        0.9665	        1836.35
864	        0.9670	        1472.43
865	        0.9671	        1410.92
866	        0.9673	        2024.79
867	        0.9674	        1883.79
868	        0.9675	        1310.03
869	        0.9677	        812.73
870	        0.9678	        761.42
871	        0.9678	        717.52
872	        0.9680	        587.18
873	        0.9681	        605.89
874	        0.9681	        630.88
875	        0.9682	        625.75
