# author : Oliver Czoske
# source : E-SPE-NOVA-MET-1049_4-0 (METIS transmission budget)
# date_created : 2020-02-28
# date_modified : 2022-05-11
# status : version 4.0, theory
# type : dichroic
# wavelength_unit : um
# description : SCAO dichroic, 20mm @ 22.5deg
# comment : extracted from excel sheet "CFO only"
# changes:
#  - 2022-05-11 (OC) updated to 4.0
#
wavelength	transmission	reflection	emissivity
 0.60	0.5789500	0.4210500	0
 0.61	0.5084229	0.4915771	0
 0.62	0.6385279	0.3614721	0
 0.63	0.5692574	0.4307426	0
 0.64	0.5571772	0.4428228	0
 0.65	0.5000193	0.4999807	0
 0.66	0.6962791	0.3037209	0
 0.67	0.6255198	0.3744802	0
 0.68	0.3786014	0.6213986	0
 0.69	0.3996101	0.6003899	0
 0.70	0.1954803	0.8045197	0
 0.71	0.0332380	0.9667620	0
 0.72	0.0406515	0.9593485	0
 0.73	0.5298207	0.4701793	0
 0.74	0.0500128	0.9499872	0
 0.75	0.0456319	0.9543681	0
 0.76	0.2610147	0.7389853	0
 0.77	0.1123508	0.8876492	0
 0.78	0.0656044	0.9343956	0
 0.79	0.1257004	0.8742996	0
 0.80	0.2144239	0.7855761	0
 0.81	0.1547696	0.8452304	0
 0.82	0.1776935	0.8223065	0
 0.83	0.2077181	0.7922819	0
 0.84	0.2005315	0.7994685	0
 0.85	0.2137444	0.7862556	0
 0.86	0.1374994	0.8625006	0
 0.87	0.0839342	0.9160658	0
 0.88	0.0861797	0.9138203	0
 0.89	0.1671253	0.8328747	0
 0.90	0.4877155	0.5122845	0
 0.91	0.4111485	0.5888515	0
 0.92	0.2880391	0.7119609	0
 0.93	0.3451787	0.6548213	0
 0.94	0.4801346	0.5198654	0
 0.95	0.4270853	0.5729147	0
 0.96	0.3079272	0.6920728	0
 0.97	0.2474014	0.7525986	0
 0.98	0.2248242	0.7751758	0
 0.99	0.2280001	0.7719999	0
 1.00	0.2524051	0.7475949	0
 1.01	0.2744731	0.7255269	0
 1.02	0.2587568	0.7412432	0
 1.03	0.2217050	0.7782950	0
 1.04	0.2001920	0.7998080	0
 1.05	0.2057904	0.7942096	0
 1.06	0.2400033	0.7599967	0
 1.07	0.2951934	0.7048066	0
 1.08	0.3333314	0.6666686	0
 1.09	0.3167989	0.6832011	0
 1.10	0.2767366	0.7232634	0
 1.11	0.2545779	0.7454221	0
 1.12	0.2647071	0.7352929	0
 1.13	0.3141987	0.6858013	0
 1.14	0.4043329	0.5956671	0
 1.15	0.4888296	0.5111704	0
 1.16	0.4751686	0.5248314	0
 1.17	0.3894403	0.6105597	0
 1.18	0.3158990	0.6841010	0
 1.19	0.2784080	0.7215920	0
 1.20	0.2767499	0.7232501	0
 1.21	0.3182295	0.6817705	0
 1.22	0.4330916	0.5669084	0
 1.23	0.6571119	0.3428881	0
 1.24	0.7006201	0.2993799	0
 1.25	0.3857692	0.6142308	0
 1.26	0.1893212	0.8106788	0
 1.27	0.1086252	0.8913748	0
 1.28	0.0744920	0.9255080	0
 1.29	0.0600383	0.9399617	0
 1.30	0.0562005	0.9437995	0
 1.31	0.0610153	0.9389847	0
 1.32	0.0776131	0.9223869	0
 1.33	0.1181839	0.8818161	0
 1.34	0.2176954	0.7823046	0
 1.35	0.3988844	0.6011156	0
 1.36	0.3572132	0.6427868	0
 1.37	0.1948441	0.8051559	0
 1.38	0.1170422	0.8829578	0
 1.39	0.0844250	0.9155750	0
 1.40	0.0714713	0.9285287	0
 1.41	0.0693957	0.9306043	0
 1.42	0.0763172	0.9236828	0
 1.43	0.0945718	0.9054282	0
 1.44	0.1316403	0.8683597	0
 1.45	0.2020938	0.7979062	0
 1.46	0.3127874	0.6872126	0
 1.47	0.3857256	0.6142744	0
 1.48	0.3309187	0.6690813	0
 1.49	0.2434512	0.7565488	0
 1.50	0.1851404	0.8148596	0
 1.51	0.1539754	0.8460246	0
 1.52	0.1407408	0.8592592	0
 1.53	0.1403739	0.8596261	0
 1.54	0.1513928	0.8486072	0
 1.55	0.1747321	0.8252679	0
 1.56	0.2125954	0.7874046	0
 1.57	0.2656191	0.7343809	0
 1.58	0.3259950	0.6740050	0
 1.59	0.3708632	0.6291368	0
 1.60	0.3759624	0.6240376	0
 1.61	0.3447809	0.6552191	0
 1.62	0.3017052	0.6982948	0
 1.63	0.2642476	0.7357524	0
 1.64	0.2376893	0.7623107	0
 1.65	0.2215632	0.7784368	0
 1.66	0.2139667	0.7860333	0
 1.67	0.2128989	0.7871011	0
 1.68	0.2163194	0.7836806	0
 1.69	0.2218726	0.7781274	0
 1.70	0.2267903	0.7732097	0
 1.71	0.2283524	0.7716476	0
 1.72	0.2248841	0.7751159	0
 1.73	0.2165482	0.7834518	0
 1.74	0.2051167	0.7948833	0
 1.75	0.1929283	0.8070717	0
 1.76	0.1819485	0.8180515	0
 1.77	0.1734277	0.8265723	0
 1.78	0.1680048	0.8319952	0
 1.79	0.1659421	0.8340579	0
 1.80	0.1673087	0.8326913	0
 1.81	0.1720557	0.8279443	0
 1.82	0.1799830	0.8200170	0
 1.83	0.1905845	0.8094155	0
 1.84	0.2028009	0.7971991	0
 1.85	0.2147833	0.7852167	0
 1.86	0.2239400	0.7760600	0
 1.87	0.2276000	0.7724000	0
 1.88	0.2242143	0.7757857	0
 1.89	0.2142445	0.7857555	0
 1.90	0.1998696	0.8001304	0
 1.91	0.1837989	0.8162011	0
 1.92	0.1682304	0.8317696	0
 1.93	0.1544866	0.8455134	0
 1.94	0.1431471	0.8568529	0
 1.95	0.1343278	0.8656722	0
 1.96	0.1279167	0.8720833	0
 1.97	0.1237202	0.8762798	0
 1.98	0.1215376	0.8784624	0
 1.99	0.1211912	0.8788088	0
 2.00	0.1225293	0.8774707	0
 2.01	0.1254166	0.8745834	0
 2.02	0.1297142	0.8702858	0
 2.03	0.1352561	0.8647439	0
 2.04	0.1418248	0.8581752	0
 2.05	0.1491318	0.8508682	0
 2.06	0.1568130	0.8431870	0
 2.07	0.1644454	0.8355546	0
 2.08	0.1715922	0.8284078	0
 2.09	0.1778681	0.8221319	0
 2.10	0.1830063	0.8169937	0
 2.11	0.1869062	0.8130938	0
 2.12	0.1896408	0.8103592	0
 2.13	0.1914259	0.8085741	0
 2.14	0.1925626	0.8074374	0
 2.15	0.1933750	0.8066250	0
 2.16	0.1941593	0.8058407	0
 2.17	0.1951498	0.8048502	0
 2.18	0.1965017	0.8034983	0
 2.19	0.1982857	0.8017143	0
 2.20	0.2004884	0.7995116	0
 2.21	0.2030145	0.7969855	0
 2.22	0.2057056	0.7942944	0
 2.23	0.2083416	0.7916584	0
 2.24	0.2106649	0.7893351	0
 2.25	0.2124098	0.7875902	0
 2.26	0.2133370	0.7866630	0
 2.27	0.2132702	0.7867298	0
 2.28	0.2121256	0.7878744	0
 2.29	0.2099269	0.7900731	0
 2.30	0.2068010	0.7931990	0
 2.31	0.2029575	0.7970425	0
 2.32	0.1986560	0.8013440	0
 2.33	0.1941734	0.8058266	0
 2.34	0.1897747	0.8102253	0
 2.35	0.1856954	0.8143046	0
 2.36	0.1821325	0.8178675	0
 2.37	0.1792444	0.8207556	0
 2.38	0.1771559	0.8228441	0
 2.39	0.1759661	0.8240339	0
 2.40	0.1757568	0.8242432	0
 2.41	0.1766011	0.8233989	0
 2.42	0.1785702	0.8214298	0
 2.43	0.1817402	0.8182598	0
 2.44	0.1861969	0.8138031	0
 2.45	0.1920402	0.8079598	0
 2.46	0.1993875	0.8006125	0
 2.47	0.2083769	0.7916231	0
 2.48	0.2191687	0.7808313	0
 2.49	0.2319463	0.7680537	0
 2.50	0.2469158	0.7530842	0
 2.51	0.2642996	0.7357004	0
 2.52	0.2843359	0.7156641	0
 2.53	0.3072657	0.6927343	0
 2.54	0.3333162	0.6666838	0
 2.55	0.3626766	0.6373234	0
 2.56	0.3954663	0.6045337	0
 2.57	0.4316946	0.5683054	0
 2.58	0.4712147	0.5287853	0
 2.59	0.5136770	0.4863230	0
 2.60	0.5584908	0.4415092	0
 2.61	0.6048104	0.3951896	0
 2.62	0.6515430	0.3484570	0
 2.63	0.6974168	0.3025832	0
 2.64	0.7410836	0.2589164	0
 2.65	0.7812601	0.2187399	0
 2.66	0.8168753	0.1831247	0
 2.67	0.8471938	0.1528062	0
 2.68	0.8718878	0.1281122	0
 2.69	0.8910404	0.1089596	0
 2.70	0.9050873	0.0949127	0
 2.71	0.9147168	0.0852832	0
 2.72	0.9207554	0.0792446	0
 2.73	0.9240634	0.0759366	0
 2.74	0.9254532	0.0745468	0
 2.75	0.9256371	0.0743629	0
 2.76	0.9252012	0.0747988	0
 2.77	0.9245983	0.0754017	0
 2.78	0.9241548	0.0758452	0
 2.79	0.9240839	0.0759161	0
 2.80	0.9245023	0.0754977	0
 2.81	0.9254485	0.0745515	0
 2.82	0.9268986	0.0731014	0
 2.83	0.9287815	0.0712185	0
 2.84	0.9309930	0.0690070	0
 2.85	0.9334074	0.0665926	0
 2.86	0.9358894	0.0641106	0
 2.87	0.9383026	0.0616974	0
 2.88	0.9405186	0.0594814	0
 2.89	0.9424234	0.0575766	0
 2.90	0.9439233	0.0560767	0
 2.91	0.9449483	0.0550517	0
 2.92	0.9454542	0.0545458	0
 2.93	0.9454234	0.0545766	0
 2.94	0.9448633	0.0551367	0
 2.95	0.9438043	0.0561957	0
 2.96	0.9422958	0.0577042	0
 2.97	0.9404029	0.0595971	0
 2.98	0.9382009	0.0617991	0
 2.99	0.9357716	0.0642284	0
 3.00	0.9331988	0.0668012	0
 3.01	0.9305637	0.0694363	0
 3.02	0.9279439	0.0720561	0
 3.03	0.9254099	0.0745901	0
 3.04	0.9230221	0.0769779	0
 3.05	0.9208308	0.0791692	0
 3.06	0.9188754	0.0811246	0
 3.07	0.9171836	0.0828164	0
 3.08	0.9157721	0.0842279	0
 3.09	0.9146473	0.0853527	0
 3.10	0.9138052	0.0861948	0
 3.11	0.9132336	0.0867664	0
 3.12	0.9129121	0.0870879	0
 3.13	0.9128140	0.0871860	0
 3.14	0.9129071	0.0870929	0
 3.15	0.9131554	0.0868446	0
 3.16	0.9135203	0.0864797	0
 3.17	0.9139618	0.0860382	0
 3.18	0.9144400	0.0855600	0
 3.19	0.9149159	0.0850841	0
 3.20	0.9153530	0.0846470	0
 3.21	0.9157178	0.0842822	0
 3.22	0.9159814	0.0840186	0
 3.23	0.9161190	0.0838810	0
 3.24	0.9161116	0.0838884	0
 3.25	0.9159459	0.0840541	0
 3.26	0.9156140	0.0843860	0
 3.27	0.9151140	0.0848860	0
 3.28	0.9144493	0.0855507	0
 3.29	0.9136287	0.0863713	0
 3.30	0.9126654	0.0873346	0
 3.31	0.9115768	0.0884232	0
 3.32	0.9103835	0.0896165	0
 3.33	0.9091088	0.0908912	0
 3.34	0.9077778	0.0922222	0
 3.35	0.9064170	0.0935830	0
 3.36	0.9050530	0.0949470	0
 3.37	0.9037123	0.0962877	0
 3.38	0.9024206	0.0975794	0
 3.39	0.9012025	0.0987975	0
 3.40	0.9000804	0.0999196	0
 3.41	0.8990738	0.1009262	0
 3.42	0.8982016	0.1017984	0
 3.43	0.8974792	0.1025208	0
 3.44	0.8969193	0.1030807	0
 3.45	0.8965313	0.1034687	0
 3.46	0.8963220	0.1036780	0
 3.47	0.8962952	0.1037048	0
 3.48	0.8964518	0.1035482	0
 3.49	0.8967901	0.1032099	0
 3.50	0.8973055	0.1026945	0
 3.51	0.8979909	0.1020091	0
 3.52	0.8988374	0.1011626	0
 3.53	0.8998337	0.1001663	0
 3.54	0.9009669	0.0990331	0
 3.55	0.9022223	0.0977777	0
 3.56	0.9035840	0.0964160	0
 3.57	0.9050350	0.0949650	0
 3.58	0.9065575	0.0934425	0
 3.59	0.9081333	0.0918667	0
 3.60	0.9097437	0.0902563	0
 3.61	0.9113704	0.0886296	0
 3.62	0.9129952	0.0870048	0
 3.63	0.9146006	0.0853994	0
 3.64	0.9161696	0.0838304	0
 3.65	0.9176867	0.0823133	0
 3.66	0.9191374	0.0808626	0
 3.67	0.9205087	0.0794913	0
 3.68	0.9217889	0.0782111	0
 3.69	0.9229686	0.0770314	0
 3.70	0.9240397	0.0759603	0
 3.71	0.9249963	0.0750037	0
 3.72	0.9258340	0.0741660	0
 3.73	0.9265506	0.0734494	0
 3.74	0.9271458	0.0728542	0
 3.75	0.9276208	0.0723792	0
 3.76	0.9279788	0.0720212	0
 3.77	0.9282242	0.0717758	0
 3.78	0.9283632	0.0716368	0
 3.79	0.9284031	0.0715969	0
 3.80	0.9283525	0.0716475	0
 3.81	0.9282208	0.0717792	0
 3.82	0.9280180	0.0719820	0
 3.83	0.9277549	0.0722451	0
 3.84	0.9274427	0.0725573	0
 3.85	0.9270928	0.0729072	0
 3.86	0.9267166	0.0732834	0
 3.87	0.9263256	0.0736744	0
 3.88	0.9259309	0.0740691	0
 3.89	0.9255433	0.0744567	0
 3.90	0.9251731	0.0748269	0
 3.91	0.9248301	0.0751699	0
 3.92	0.9245233	0.0754767	0
 3.93	0.9242609	0.0757391	0
 3.94	0.9240508	0.0759492	0
 3.95	0.9238992	0.0761008	0
 3.96	0.9238120	0.0761880	0
 3.97	0.9237939	0.0762061	0
 3.98	0.9238491	0.0761509	0
 3.99	0.9239801	0.0760199	0
 4.00	0.9241891	0.0758109	0
 4.01	0.9244771	0.0755229	0
 4.02	0.9248444	0.0751556	0
 4.03	0.9252898	0.0747102	0
 4.04	0.9258121	0.0741879	0
 4.05	0.9264089	0.0735911	0
 4.06	0.9270770	0.0729230	0
 4.07	0.9278125	0.0721875	0
 4.08	0.9286108	0.0713892	0
 4.09	0.9294668	0.0705332	0
 4.10	0.9303749	0.0696251	0
 4.11	0.9313287	0.0686713	0
 4.12	0.9323220	0.0676780	0
 4.13	0.9333473	0.0666527	0
 4.14	0.9343978	0.0656022	0
 4.15	0.9354657	0.0645343	0
 4.16	0.9365435	0.0634565	0
 4.17	0.9376234	0.0623766	0
 4.18	0.9386978	0.0613022	0
 4.19	0.9397587	0.0602413	0
 4.20	0.9407986	0.0592014	0
 4.21	0.9418101	0.0581899	0
 4.22	0.9427859	0.0572141	0
 4.23	0.9437193	0.0562807	0
 4.24	0.9446033	0.0553967	0
 4.25	0.9454322	0.0545678	0
 4.26	0.9462000	0.0538000	0
 4.27	0.9469012	0.0530988	0
 4.28	0.9475313	0.0524687	0
 4.29	0.9480860	0.0519140	0
 4.30	0.9485617	0.0514383	0
 4.31	0.9489552	0.0510448	0
 4.32	0.9492641	0.0507359	0
 4.33	0.9494866	0.0505134	0
 4.34	0.9496214	0.0503786	0
 4.35	0.9496678	0.0503322	0
 4.36	0.9496258	0.0503742	0
 4.37	0.9494959	0.0505041	0
 4.38	0.9492793	0.0507207	0
 4.39	0.9489775	0.0510225	0
 4.40	0.9485928	0.0514072	0
 4.41	0.9481276	0.0518724	0
 4.42	0.9475852	0.0524148	0
 4.43	0.9469689	0.0530311	0
 4.44	0.9462827	0.0537173	0
 4.45	0.9455304	0.0544696	0
 4.46	0.9447169	0.0552831	0
 4.47	0.9438466	0.0561534	0
 4.48	0.9429247	0.0570753	0
 4.49	0.9419557	0.0580443	0
 4.50	0.9409454	0.0590546	0
 4.51	0.9398986	0.0601014	0
 4.52	0.9388207	0.0611793	0
 4.53	0.9377171	0.0622829	0
 4.54	0.9365931	0.0634069	0
 4.55	0.9354538	0.0645462	0
 4.56	0.9343042	0.0656958	0
 4.57	0.9331496	0.0668504	0
 4.58	0.9319945	0.0680055	0
 4.59	0.9308437	0.0691563	0
 4.60	0.9297019	0.0702981	0
 4.61	0.9285732	0.0714268	0
 4.62	0.9274616	0.0725384	0
 4.63	0.9263710	0.0736290	0
 4.64	0.9253049	0.0746951	0
 4.65	0.9242667	0.0757333	0
 4.66	0.9232594	0.0767406	0
 4.67	0.9222860	0.0777140	0
 4.68	0.9213488	0.0786512	0
 4.69	0.9204501	0.0795499	0
 4.70	0.9195921	0.0804079	0
 4.71	0.9187761	0.0812239	0
 4.72	0.9180040	0.0819960	0
 4.73	0.9172767	0.0827233	0
 4.74	0.9165953	0.0834047	0
 4.75	0.9159606	0.0840394	0
 4.76	0.9153727	0.0846273	0
 4.77	0.9148322	0.0851678	0
 4.78	0.9143386	0.0856614	0
 4.79	0.9138921	0.0861079	0
 4.80	0.9134921	0.0865079	0
 4.81	0.9131379	0.0868621	0
 4.82	0.9128286	0.0871714	0
 4.83	0.9125634	0.0874366	0
 4.84	0.9123409	0.0876591	0
 4.85	0.9121598	0.0878402	0
 4.86	0.9120187	0.0879813	0
 4.87	0.9119157	0.0880843	0
 4.88	0.9118494	0.0881506	0
 4.89	0.9118176	0.0881824	0
 4.90	0.9118185	0.0881815	0
 4.91	0.9118500	0.0881500	0
 4.92	0.9119099	0.0880901	0
 4.93	0.9119960	0.0880040	0
 4.94	0.9121059	0.0878941	0
 4.95	0.9122375	0.0877625	0
 4.96	0.9123885	0.0876115	0
 4.97	0.9125562	0.0874438	0
 4.98	0.9127383	0.0872617	0
 4.99	0.9129325	0.0870675	0
 5.00	0.9131362	0.0868638	0
 5.01	0.9133709	0.0866291	0
 5.02	0.9136105	0.0863895	0
 5.03	0.9138524	0.0861476	0
 5.04	0.9140944	0.0859056	0
 5.05	0.9143343	0.0856657	0
 5.06	0.9145697	0.0854303	0
 5.07	0.9147986	0.0852014	0
 5.08	0.9150188	0.0849812	0
 5.09	0.9152284	0.0847716	0
 5.10	0.9154254	0.0845746	0
 5.11	0.9156080	0.0843920	0
 5.12	0.9157746	0.0842254	0
 5.13	0.9159236	0.0840764	0
 5.14	0.9160534	0.0839466	0
 5.15	0.9161628	0.0838372	0
 5.16	0.9162504	0.0837496	0
 5.17	0.9163151	0.0836849	0
 5.18	0.9163560	0.0836440	0
 5.19	0.9163721	0.0836279	0
 5.20	0.9163627	0.0836373	0
 5.21	0.9163272	0.0836728	0
 5.22	0.9162650	0.0837350	0
 5.23	0.9161758	0.0838242	0
 5.24	0.9160593	0.0839407	0
 5.25	0.9159153	0.0840847	0
 5.26	0.9157439	0.0842561	0
 5.27	0.9155450	0.0844550	0
 5.28	0.9153189	0.0846811	0
 5.29	0.9150660	0.0849340	0
 5.30	0.9147866	0.0852134	0
 5.31	0.9144813	0.0855187	0
 5.32	0.9141505	0.0858495	0
 5.33	0.9137952	0.0862048	0
 5.34	0.9134158	0.0865842	0
 5.35	0.9130136	0.0869864	0
 5.36	0.9125891	0.0874109	0
 5.37	0.9121436	0.0878564	0
 5.38	0.9116780	0.0883220	0
 5.39	0.9111934	0.0888066	0
 5.40	0.9106911	0.0893089	0
 5.41	0.9101722	0.0898278	0
 5.42	0.9096380	0.0903620	0
 5.43	0.9090899	0.0909101	0
 5.44	0.9085290	0.0914710	0
 5.45	0.9079568	0.0920432	0
 5.46	0.9073746	0.0926254	0
 5.47	0.9067840	0.0932160	0
 5.48	0.9061860	0.0938140	0
 5.49	0.9055823	0.0944177	0
 5.50	0.9049740	0.0950260	0
 5.51	0.9043791	0.0956209	0
 5.52	0.9037825	0.0962175	0
 5.53	0.9031859	0.0968141	0
 5.54	0.9025905	0.0974095	0
 5.55	0.9019978	0.0980022	0
 5.56	0.9014090	0.0985910	0
 5.57	0.9008253	0.0991747	0
 5.58	0.9002483	0.0997517	0
 5.59	0.8996791	0.1003209	0
 5.60	0.8991187	0.1008813	0
 5.61	0.8985683	0.1014317	0
 5.62	0.8980292	0.1019708	0
 5.63	0.8975023	0.1024977	0
 5.64	0.8969887	0.1030113	0
 5.65	0.8964893	0.1035107	0
 5.66	0.8960049	0.1039951	0
 5.67	0.8955368	0.1044632	0
 5.68	0.8950855	0.1049145	0
 5.69	0.8946517	0.1053483	0
 5.70	0.8942363	0.1057637	0
 5.71	0.8938398	0.1061602	0
 5.72	0.8934630	0.1065370	0
 5.73	0.8931063	0.1068937	0
 5.74	0.8927703	0.1072297	0
 5.75	0.8924556	0.1075444	0
 5.76	0.8921623	0.1078377	0
 5.77	0.8918909	0.1081091	0
 5.78	0.8916418	0.1083582	0
 5.79	0.8914151	0.1085849	0
 5.80	0.8912111	0.1087889	0
 5.81	0.8910299	0.1089701	0
 5.82	0.8908717	0.1091283	0
 5.83	0.8907365	0.1092635	0
 5.84	0.8906242	0.1093758	0
 5.85	0.8905351	0.1094649	0
 5.86	0.8904688	0.1095312	0
 5.87	0.8904253	0.1095747	0
 5.88	0.8904046	0.1095954	0
 5.89	0.8904063	0.1095937	0
 5.90	0.8904303	0.1095697	0
 5.91	0.8904762	0.1095238	0
 5.92	0.8905439	0.1094561	0
 5.93	0.8906329	0.1093671	0
 5.94	0.8907428	0.1092572	0
 5.95	0.8908733	0.1091267	0
 5.96	0.8910241	0.1089759	0
 5.97	0.8911946	0.1088054	0
 5.98	0.8913842	0.1086158	0
 5.99	0.8915926	0.1084074	0
 6.00	0.8918192	0.1081808	0
 6.01	0.8920683	0.1079317	0
 6.02	0.8923345	0.1076655	0
 6.03	0.8926173	0.1073827	0
 6.04	0.8929159	0.1070841	0
 6.05	0.8932298	0.1067702	0
 6.06	0.8935583	0.1064417	0
 6.07	0.8939008	0.1060992	0
 6.08	0.8942566	0.1057434	0
 6.09	0.8946249	0.1053751	0
 6.10	0.8950052	0.1049948	0
 6.11	0.8953966	0.1046034	0
 6.12	0.8957985	0.1042015	0
 6.13	0.8962103	0.1037897	0
 6.14	0.8966310	0.1033690	0
 6.15	0.8970601	0.1029399	0
 6.16	0.8974968	0.1025032	0
 6.17	0.8979404	0.1020596	0
 6.18	0.8983902	0.1016098	0
 6.19	0.8988455	0.1011545	0
 6.20	0.8993055	0.1006945	0
 6.21	0.8997697	0.1002303	0
 6.22	0.9002374	0.0997626	0
 6.23	0.9007077	0.0992923	0
 6.24	0.9011800	0.0988200	0
 6.25	0.9016535	0.0983465	0
 6.26	0.9021276	0.0978724	0
 6.27	0.9026017	0.0973983	0
 6.28	0.9030753	0.0969247	0
 6.29	0.9035473	0.0964527	0
 6.30	0.9040175	0.0959825	0
 6.31	0.9044852	0.0955148	0
 6.32	0.9049498	0.0950502	0
 6.33	0.9054108	0.0945892	0
 6.34	0.9058676	0.0941324	0
 6.35	0.9063197	0.0936803	0
 6.36	0.9067665	0.0932335	0
 6.37	0.9072077	0.0927923	0
 6.38	0.9076426	0.0923574	0
 6.39	0.9080709	0.0919291	0
 6.40	0.9084921	0.0915079	0
 6.41	0.9089059	0.0910941	0
 6.42	0.9093118	0.0906882	0
 6.43	0.9097095	0.0902905	0
 6.44	0.9100986	0.0899014	0
 6.45	0.9104789	0.0895211	0
 6.46	0.9108500	0.0891500	0
 6.47	0.9112117	0.0887883	0
 6.48	0.9115636	0.0884364	0
 6.49	0.9119056	0.0880944	0
 6.50	0.9122375	0.0877625	0
 6.51	0.9125642	0.0874358	0
 6.52	0.9128807	0.0871193	0
 6.53	0.9131863	0.0868137	0
 6.54	0.9134811	0.0865189	0
 6.55	0.9137651	0.0862349	0
 6.56	0.9140380	0.0859620	0
 6.57	0.9143000	0.0857000	0
 6.58	0.9145508	0.0854492	0
 6.59	0.9147907	0.0852093	0
 6.60	0.9150195	0.0849805	0
 6.61	0.9152372	0.0847628	0
 6.62	0.9154440	0.0845560	0
 6.63	0.9156399	0.0843601	0
 6.64	0.9158250	0.0841750	0
 6.65	0.9159995	0.0840005	0
 6.66	0.9161631	0.0838369	0
 6.67	0.9163165	0.0836835	0
 6.68	0.9164595	0.0835405	0
 6.69	0.9165924	0.0834076	0
 6.70	0.9167154	0.0832846	0
 6.71	0.9168287	0.0831713	0
 6.72	0.9169325	0.0830675	0
 6.73	0.9170269	0.0829731	0
 6.74	0.9171124	0.0828876	0
 6.75	0.9171891	0.0828109	0
 6.76	0.9172572	0.0827428	0
 6.77	0.9173171	0.0826829	0
 6.78	0.9173692	0.0826308	0
 6.79	0.9174134	0.0825866	0
 6.80	0.9174503	0.0825497	0
 6.81	0.9174802	0.0825198	0
 6.82	0.9175034	0.0824966	0
 6.83	0.9175202	0.0824798	0
 6.84	0.9175309	0.0824691	0
 6.85	0.9175359	0.0824641	0
 6.86	0.9175355	0.0824645	0
 6.87	0.9175301	0.0824699	0
 6.88	0.9175200	0.0824800	0
 6.89	0.9175055	0.0824945	0
 6.90	0.9174871	0.0825129	0
 6.91	0.9174651	0.0825349	0
 6.92	0.9174398	0.0825602	0
 6.93	0.9174117	0.0825883	0
 6.94	0.9173808	0.0826192	0
 6.95	0.9173479	0.0826521	0
 6.96	0.9173132	0.0826868	0
 6.97	0.9172769	0.0827231	0
 6.98	0.9172395	0.0827605	0
 6.99	0.9172015	0.0827985	0
 7.00	0.9171630	0.0828370	0
 7.01	0.9171284	0.0828716	0
 7.02	0.9170942	0.0829058	0
 7.03	0.9170606	0.0829394	0
 7.04	0.9170279	0.0829721	0
 7.05	0.9169965	0.0830035	0
 7.06	0.9169669	0.0830331	0
 7.07	0.9169391	0.0830609	0
 7.08	0.9169136	0.0830864	0
 7.09	0.9168907	0.0831093	0
 7.10	0.9168707	0.0831293	0
 7.11	0.9168538	0.0831462	0
 7.12	0.9168404	0.0831596	0
 7.13	0.9168307	0.0831693	0
 7.14	0.9168252	0.0831748	0
 7.15	0.9168240	0.0831760	0
 7.16	0.9168271	0.0831729	0
 7.17	0.9168352	0.0831648	0
 7.18	0.9168484	0.0831516	0
 7.19	0.9168668	0.0831332	0
 7.20	0.9168907	0.0831093	0
 7.21	0.9169205	0.0830795	0
 7.22	0.9169561	0.0830439	0
 7.23	0.9169981	0.0830019	0
 7.24	0.9170462	0.0829538	0
 7.25	0.9171011	0.0828989	0
 7.26	0.9171624	0.0828376	0
 7.27	0.9172308	0.0827692	0
 7.28	0.9173062	0.0826938	0
 7.29	0.9173889	0.0826111	0
 7.30	0.9174789	0.0825211	0
 7.31	0.9175764	0.0824236	0
 7.32	0.9176815	0.0823185	0
 7.33	0.9177944	0.0822056	0
 7.34	0.9179151	0.0820849	0
 7.35	0.9180438	0.0819562	0
 7.36	0.9181805	0.0818195	0
 7.37	0.9183252	0.0816748	0
 7.38	0.9184783	0.0815217	0
 7.39	0.9186395	0.0813605	0
 7.40	0.9188092	0.0811908	0
 7.41	0.9189874	0.0810126	0
 7.42	0.9191740	0.0808260	0
 7.43	0.9193691	0.0806309	0
 7.44	0.9195727	0.0804273	0
 7.45	0.9197847	0.0802153	0
 7.46	0.9200053	0.0799947	0
 7.47	0.9202344	0.0797656	0
 7.48	0.9204720	0.0795280	0
 7.49	0.9207180	0.0792820	0
 7.50	0.9209726	0.0790274	0
 7.51	0.9212402	0.0787598	0
 7.52	0.9215162	0.0784838	0
 7.53	0.9218006	0.0781994	0
 7.54	0.9220935	0.0779065	0
 7.55	0.9223946	0.0776054	0
 7.56	0.9227039	0.0772961	0
 7.57	0.9230214	0.0769786	0
 7.58	0.9233471	0.0766529	0
