# author : Oliver Czoske
# source : E-SPE-NOVA-MET-1049_3-0 (METIS transmission budget)
# date_created : 2020-02-28
# date_modified : 2020-04-13
# status : version 3.0
# type : dichroic
# wavelength_unit : um
# description : IMG dichroic, LM:trans, N:reflect
# comment : extracted from excel sheet "CFO+IMG-NQ"
#
wavelength	transmission	reflection	emissivity
 0.50	0.0000	1.0000	0
 0.51	0.0000	1.0000	0
 0.52	0.0000	1.0000	0
 0.53	0.0000	1.0000	0
 0.54	0.0000	1.0000	0
 0.55	0.0000	1.0000	0
 0.56	0.0000	1.0000	0
 0.57	0.0000	1.0000	0
 0.58	0.0000	1.0000	0
 0.59	0.0000	1.0000	0
 0.60	0.0000	1.0000	0
 0.61	0.0000	1.0000	0
 0.62	0.0000	1.0000	0
 0.63	0.0000	1.0000	0
 0.64	0.0000	1.0000	0
 0.65	0.0000	1.0000	0
 0.66	0.0000	1.0000	0
 0.67	0.0000	1.0000	0
 0.68	0.0000	1.0000	0
 0.69	0.0000	1.0000	0
 0.70	0.0000	1.0000	0
 0.71	0.0000	1.0000	0
 0.72	0.0000	1.0000	0
 0.73	0.0000	1.0000	0
 0.74	0.0000	1.0000	0
 0.75	0.0000	1.0000	0
 0.76	0.0000	1.0000	0
 0.77	0.0000	1.0000	0
 0.78	0.0000	1.0000	0
 0.79	0.0000	1.0000	0
 0.80	0.0000	1.0000	0
 0.81	0.0000	1.0000	0
 0.82	0.0000	1.0000	0
 0.83	0.0000	1.0000	0
 0.84	0.0000	1.0000	0
 0.85	0.0000	1.0000	0
 0.86	0.0000	1.0000	0
 0.87	0.0000	1.0000	0
 0.88	0.0000	1.0000	0
 0.89	0.0000	1.0000	0
 0.90	0.0000	1.0000	0
 0.91	0.0000	1.0000	0
 0.92	0.0000	1.0000	0
 0.93	0.0000	1.0000	0
 0.94	0.0000	1.0000	0
 0.95	0.0000	1.0000	0
 0.96	0.0000	1.0000	0
 0.97	0.0000	1.0000	0
 0.98	0.0000	1.0000	0
 0.99	0.0000	1.0000	0
 1.00	0.0000	1.0000	0
 1.01	0.0000	1.0000	0
 1.02	0.0000	1.0000	0
 1.03	0.0000	1.0000	0
 1.04	0.0000	1.0000	0
 1.05	0.0000	1.0000	0
 1.06	0.0000	1.0000	0
 1.07	0.0000	1.0000	0
 1.08	0.0000	1.0000	0
 1.09	0.0000	1.0000	0
 1.10	0.0000	1.0000	0
 1.11	0.0000	1.0000	0
 1.12	0.0000	1.0000	0
 1.13	0.0000	1.0000	0
 1.14	0.0000	1.0000	0
 1.15	0.0000	1.0000	0
 1.16	0.0000	1.0000	0
 1.17	0.0000	1.0000	0
 1.18	0.0000	1.0000	0
 1.19	0.0000	1.0000	0
 1.20	0.0000	1.0000	0
 1.21	0.0000	1.0000	0
 1.22	0.0000	1.0000	0
 1.23	0.0000	1.0000	0
 1.24	0.0000	1.0000	0
 1.25	0.0000	1.0000	0
 1.26	0.0000	1.0000	0
 1.27	0.0000	1.0000	0
 1.28	0.0000	1.0000	0
 1.29	0.0000	1.0000	0
 1.30	0.0000	1.0000	0
 1.31	0.0000	1.0000	0
 1.32	0.0000	1.0000	0
 1.33	0.0000	1.0000	0
 1.34	0.0000	1.0000	0
 1.35	0.0000	1.0000	0
 1.36	0.0000	1.0000	0
 1.37	0.0000	1.0000	0
 1.38	0.0000	1.0000	0
 1.39	0.0000	1.0000	0
 1.40	0.0000	1.0000	0
 1.41	0.0000	1.0000	0
 1.42	0.0000	1.0000	0
 1.43	0.0000	1.0000	0
 1.44	0.0000	1.0000	0
 1.45	0.0000	1.0000	0
 1.46	0.0000	1.0000	0
 1.47	0.0000	1.0000	0
 1.48	0.0000	1.0000	0
 1.49	0.0000	1.0000	0
 1.50	0.0000	1.0000	0
 1.51	0.0000	1.0000	0
 1.52	0.0000	1.0000	0
 1.53	0.0000	1.0000	0
 1.54	0.0000	1.0000	0
 1.55	0.0000	1.0000	0
 1.56	0.0000	1.0000	0
 1.57	0.0000	1.0000	0
 1.58	0.0000	1.0000	0
 1.59	0.0000	1.0000	0
 1.60	0.0000	1.0000	0
 1.61	0.0000	1.0000	0
 1.62	0.0000	1.0000	0
 1.63	0.0000	1.0000	0
 1.64	0.0000	1.0000	0
 1.65	0.0000	1.0000	0
 1.66	0.0000	1.0000	0
 1.67	0.0000	1.0000	0
 1.68	0.0000	1.0000	0
 1.69	0.0000	1.0000	0
 1.70	0.0000	1.0000	0
 1.71	0.0000	1.0000	0
 1.72	0.0000	1.0000	0
 1.73	0.0000	1.0000	0
 1.74	0.0000	1.0000	0
 1.75	0.0000	1.0000	0
 1.76	0.0000	1.0000	0
 1.77	0.0000	1.0000	0
 1.78	0.0000	1.0000	0
 1.79	0.0000	1.0000	0
 1.80	0.0001	0.9999	0
 1.81	0.0000	1.0000	0
 1.82	0.0000	1.0000	0
 1.83	0.0001	0.9999	0
 1.84	0.0000	1.0000	0
 1.85	0.0000	1.0000	0
 1.86	0.0000	1.0000	0
 1.87	0.0000	1.0000	0
 1.88	0.0000	1.0000	0
 1.89	0.0000	1.0000	0
 1.90	0.0001	0.9999	0
 1.91	0.0001	0.9999	0
 1.92	0.1232	0.8768	0
 1.93	0.0125	0.9875	0
 1.94	0.0078	0.9922	0
 1.95	0.0006	0.9994	0
 1.96	0.0002	0.9998	0
 1.97	0.0003	0.9997	0
 1.98	0.0030	0.9970	0
 1.99	0.0797	0.9203	0
 2.00	0.0578	0.9422	0
 2.01	0.2842	0.7158	0
 2.02	0.1962	0.8038	0
 2.03	0.1455	0.8545	0
 2.04	0.0505	0.9495	0
 2.05	0.6715	0.3285	0
 2.06	0.0093	0.9907	0
 2.07	0.0041	0.9959	0
 2.08	0.0368	0.9632	0
 2.09	0.0048	0.9952	0
 2.10	0.0016	0.9984	0
 2.11	0.0027	0.9973	0
 2.12	0.0185	0.9815	0
 2.13	0.0186	0.9814	0
 2.14	0.0145	0.9855	0
 2.15	0.0018	0.9982	0
 2.16	0.0009	0.9991	0
 2.17	0.0012	0.9988	0
 2.18	0.0077	0.9923	0
 2.19	0.0249	0.9751	0
 2.20	0.0050	0.9950	0
 2.21	0.0082	0.9918	0
 2.22	0.0845	0.9155	0
 2.23	0.1978	0.8022	0
 2.24	0.1774	0.8226	0
 2.25	0.5950	0.4050	0
 2.26	0.0914	0.9086	0
 2.27	0.1236	0.8764	0
 2.28	0.7376	0.2624	0
 2.29	0.0731	0.9269	0
 2.30	0.0680	0.9320	0
 2.31	0.3951	0.6049	0
 2.32	0.2287	0.7713	0
 2.33	0.0394	0.9606	0
 2.34	0.0068	0.9932	0
 2.35	0.0030	0.9970	0
 2.36	0.0029	0.9971	0
 2.37	0.0068	0.9932	0
 2.38	0.0236	0.9764	0
 2.39	0.0203	0.9797	0
 2.40	0.2380	0.7620	0
 2.41	0.0053	0.9947	0
 2.42	0.0009	0.9991	0
 2.43	0.0005	0.9995	0
 2.44	0.0004	0.9996	0
 2.45	0.0006	0.9994	0
 2.46	0.0017	0.9983	0
 2.47	0.0094	0.9906	0
 2.48	0.1208	0.8792	0
 2.49	0.4036	0.5964	0
 2.50	0.3833	0.6167	0
 2.51	0.4716	0.5284	0
 2.52	0.5599	0.4401	0
 2.53	0.1307	0.8693	0
 2.54	0.4138	0.5862	0
 2.55	0.0040	0.9960	0
 2.56	0.0008	0.9992	0
 2.57	0.0004	0.9996	0
 2.58	0.0004	0.9996	0
 2.59	0.0085	0.9915	0
 2.60	0.0004	0.9996	0
 2.61	0.0000	1.0000	0
 2.62	0.0000	1.0000	0
 2.63	0.0000	1.0000	0
 2.64	0.0000	1.0000	0
 2.65	0.0000	1.0000	0
 2.66	0.0000	1.0000	0
 2.67	0.0000	1.0000	0
 2.68	0.0000	1.0000	0
 2.69	0.0002	0.9998	0
 2.70	0.0008	0.9992	0
 2.71	0.0003	0.9997	0
 2.72	0.0001	0.9999	0
 2.73	0.0001	0.9999	0
 2.74	0.0001	0.9999	0
 2.75	0.0001	0.9999	0
 2.76	0.0003	0.9997	0
 2.77	0.0007	0.9993	0
 2.78	0.0027	0.9973	0
 2.79	0.0123	0.9877	0
 2.80	0.0610	0.9390	0
 2.81	0.0789	0.9211	0
 2.82	0.0571	0.9429	0
 2.83	0.0506	0.9494	0
 2.84	0.0382	0.9618	0
 2.85	0.0533	0.9467	0
 2.86	0.1173	0.8827	0
 2.87	0.3226	0.6774	0
 2.88	0.5678	0.4322	0
 2.89	0.7815	0.2185	0
 2.90	0.9676	0.0324	0
 2.91	0.9889	0.0111	0
 2.92	0.9859	0.0141	0
 2.93	0.9753	0.0247	0
 2.94	0.9808	0.0192	0
 2.95	0.9886	0.0114	0
 2.96	0.9814	0.0186	0
 2.97	0.9739	0.0261	0
 2.98	0.9793	0.0207	0
 2.99	0.9855	0.0145	0
 3.00	0.9818	0.0182	0
 3.01	0.9773	0.0227	0
 3.02	0.9817	0.0183	0
 3.03	0.9890	0.0110	0
 3.04	0.9877	0.0123	0
 3.05	0.9797	0.0203	0
 3.06	0.9762	0.0238	0
 3.07	0.9813	0.0187	0
 3.08	0.9869	0.0131	0
 3.09	0.9846	0.0154	0
 3.10	0.9781	0.0219	0
 3.11	0.9767	0.0233	0
 3.12	0.9827	0.0173	0
 3.13	0.9885	0.0115	0
 3.14	0.9862	0.0138	0
 3.15	0.9784	0.0216	0
 3.16	0.9743	0.0257	0
 3.17	0.9784	0.0216	0
 3.18	0.9857	0.0143	0
 3.19	0.9874	0.0126	0
 3.20	0.9814	0.0186	0
 3.21	0.9748	0.0252	0
 3.22	0.9750	0.0250	0
 3.23	0.9821	0.0179	0
 3.24	0.9890	0.0110	0
 3.25	0.9888	0.0112	0
 3.26	0.9825	0.0175	0
 3.27	0.9776	0.0224	0
 3.28	0.9795	0.0205	0
 3.29	0.9865	0.0135	0
 3.30	0.9917	0.0083	0
 3.31	0.9892	0.0108	0
 3.32	0.9812	0.0188	0
 3.33	0.9753	0.0247	0
 3.34	0.9769	0.0231	0
 3.35	0.9849	0.0151	0
 3.36	0.9927	0.0073	0
 3.37	0.9933	0.0067	0
 3.38	0.9863	0.0137	0
 3.39	0.9779	0.0221	0
 3.40	0.9751	0.0249	0
 3.41	0.9797	0.0203	0
 3.42	0.9878	0.0122	0
 3.43	0.9924	0.0076	0
 3.44	0.9897	0.0103	0
 3.45	0.9823	0.0177	0
 3.46	0.9767	0.0233	0
 3.47	0.9773	0.0227	0
 3.48	0.9839	0.0161	0
 3.49	0.9919	0.0081	0
 3.50	0.9953	0.0047	0
 3.51	0.9918	0.0082	0
 3.52	0.9847	0.0153	0
 3.53	0.9799	0.0201	0
 3.54	0.9808	0.0192	0
 3.55	0.9870	0.0130	0
 3.56	0.9938	0.0062	0
 3.57	0.9964	0.0036	0
 3.58	0.9924	0.0076	0
 3.59	0.9848	0.0152	0
 3.60	0.9788	0.0212	0
 3.61	0.9779	0.0221	0
 3.62	0.9824	0.0176	0
 3.63	0.9894	0.0106	0
 3.64	0.9938	0.0062	0
 3.65	0.9929	0.0071	0
 3.66	0.9870	0.0130	0
 3.67	0.9807	0.0193	0
 3.68	0.9777	0.0223	0
 3.69	0.9800	0.0200	0
 3.70	0.9860	0.0140	0
 3.71	0.9921	0.0079	0
 3.72	0.9943	0.0057	0
 3.73	0.9912	0.0088	0
 3.74	0.9850	0.0150	0
 3.75	0.9796	0.0204	0
 3.76	0.9783	0.0217	0
 3.77	0.9817	0.0183	0
 3.78	0.9881	0.0119	0
 3.79	0.9938	0.0062	0
 3.80	0.9953	0.0047	0
 3.81	0.9918	0.0082	0
 3.82	0.9854	0.0146	0
 3.83	0.9797	0.0203	0
 3.84	0.9778	0.0222	0
 3.85	0.9806	0.0194	0
 3.86	0.9865	0.0135	0
 3.87	0.9923	0.0077	0
 3.88	0.9949	0.0051	0
 3.89	0.9925	0.0075	0
 3.90	0.9866	0.0134	0
 3.91	0.9804	0.0196	0
 3.92	0.9770	0.0230	0
 3.93	0.9778	0.0222	0
 3.94	0.9823	0.0177	0
 3.95	0.9879	0.0121	0
 3.96	0.9916	0.0084	0
 3.97	0.9912	0.0088	0
 3.98	0.9869	0.0131	0
 3.99	0.9810	0.0190	0
 4.00	0.9767	0.0233	0
 4.01	0.9761	0.0239	0
 4.02	0.9795	0.0205	0
 4.03	0.9851	0.0149	0
 4.04	0.9902	0.0098	0
 4.05	0.9921	0.0079	0
 4.06	0.9898	0.0102	0
 4.07	0.9846	0.0154	0
 4.08	0.9798	0.0202	0
 4.09	0.9778	0.0222	0
 4.10	0.9794	0.0206	0
 4.11	0.9833	0.0167	0
 4.12	0.9864	0.0136	0
 4.13	0.9861	0.0139	0
 4.14	0.9817	0.0183	0
 4.15	0.9766	0.0234	0
 4.16	0.9764	0.0236	0
 4.17	0.9833	0.0167	0
 4.18	0.9888	0.0112	0
 4.19	0.9671	0.0329	0
 4.20	0.8786	0.1214	0
 4.21	0.7098	0.2902	0
 4.22	0.5152	0.4848	0
 4.23	0.3549	0.6451	0
 4.24	0.2440	0.7560	0
 4.25	0.1738	0.8262	0
 4.26	0.1290	0.8710	0
 4.27	0.1000	0.9000	0
 4.28	0.0808	0.9192	0
 4.29	0.0680	0.9320	0
 4.30	0.0595	0.9405	0
 4.31	0.0542	0.9458	0
 4.32	0.0510	0.9490	0
 4.33	0.0497	0.9503	0
 4.34	0.0501	0.9499	0
 4.35	0.0521	0.9479	0
 4.36	0.0560	0.9440	0
 4.37	0.0620	0.9380	0
 4.38	0.0709	0.9291	0
 4.39	0.0835	0.9165	0
 4.40	0.1015	0.8985	0
 4.41	0.1268	0.8732	0
 4.42	0.1628	0.8372	0
 4.43	0.2134	0.7866	0
 4.44	0.2846	0.7154	0
 4.45	0.3830	0.6170	0
 4.46	0.5092	0.4908	0
 4.47	0.6559	0.3441	0
 4.48	0.7961	0.2039	0
 4.49	0.9006	0.0994	0
 4.50	0.9577	0.0423	0
 4.51	0.9798	0.0202	0
 4.52	0.9846	0.0154	0
 4.53	0.9843	0.0157	0
 4.54	0.9837	0.0163	0
 4.55	0.9834	0.0166	0
 4.56	0.9828	0.0172	0
 4.57	0.9814	0.0186	0
 4.58	0.9794	0.0206	0
 4.59	0.9778	0.0222	0
 4.60	0.9775	0.0225	0
 4.61	0.9787	0.0213	0
 4.62	0.9815	0.0185	0
 4.63	0.9850	0.0150	0
 4.64	0.9883	0.0117	0
 4.65	0.9903	0.0097	0
 4.66	0.9903	0.0097	0
 4.67	0.9883	0.0117	0
 4.68	0.9849	0.0151	0
 4.69	0.9812	0.0188	0
 4.70	0.9783	0.0217	0
 4.71	0.9770	0.0230	0
 4.72	0.9776	0.0224	0
 4.73	0.9799	0.0201	0
 4.74	0.9833	0.0167	0
 4.75	0.9867	0.0133	0
 4.76	0.9893	0.0107	0
 4.77	0.9901	0.0099	0
 4.78	0.9888	0.0112	0
 4.79	0.9859	0.0141	0
 4.80	0.9819	0.0181	0
 4.81	0.9779	0.0221	0
 4.82	0.9747	0.0253	0
 4.83	0.9730	0.0270	0
 4.84	0.9733	0.0267	0
 4.85	0.9754	0.0246	0
 4.86	0.9787	0.0213	0
 4.87	0.9825	0.0175	0
 4.88	0.9859	0.0141	0
 4.89	0.9883	0.0117	0
 4.90	0.9888	0.0112	0
 4.91	0.9877	0.0123	0
 4.92	0.9851	0.0149	0
 4.93	0.9818	0.0182	0
 4.94	0.9785	0.0215	0
 4.95	0.9759	0.0241	0
 4.96	0.9746	0.0254	0
 4.97	0.9747	0.0253	0
 4.98	0.9764	0.0236	0
 4.99	0.9791	0.0209	0
 5.00	0.9823	0.0177	0
 5.01	0.9854	0.0146	0
 5.02	0.9876	0.0124	0
 5.03	0.9885	0.0115	0
 5.04	0.9880	0.0120	0
 5.05	0.9862	0.0138	0
 5.06	0.9834	0.0166	0
 5.07	0.9801	0.0199	0
 5.08	0.9769	0.0231	0
 5.09	0.9742	0.0258	0
 5.10	0.9724	0.0276	0
 5.11	0.9717	0.0283	0
 5.12	0.9720	0.0280	0
 5.13	0.9731	0.0269	0
 5.14	0.9746	0.0254	0
 5.15	0.9764	0.0236	0
 5.16	0.9780	0.0220	0
 5.17	0.9793	0.0207	0
 5.18	0.9800	0.0200	0
 5.19	0.9802	0.0198	0
 5.20	0.9800	0.0200	0
 5.21	0.9797	0.0203	0
 5.22	0.9793	0.0207	0
 5.23	0.9789	0.0211	0
 5.24	0.9785	0.0215	0
 5.25	0.9782	0.0218	0
 5.26	0.9779	0.0221	0
 5.27	0.9777	0.0223	0
 5.28	0.9775	0.0225	0
 5.29	0.9774	0.0226	0
 5.30	0.9774	0.0226	0
 5.31	0.9777	0.0223	0
 5.32	0.9784	0.0216	0
 5.33	0.9796	0.0204	0
 5.34	0.9812	0.0188	0
 5.35	0.9832	0.0168	0
 5.36	0.9851	0.0149	0
 5.37	0.9866	0.0134	0
 5.38	0.9873	0.0127	0
 5.39	0.9868	0.0132	0
 5.40	0.9851	0.0149	0
 5.41	0.9824	0.0176	0
 5.42	0.9794	0.0206	0
 5.43	0.9767	0.0233	0
 5.44	0.9756	0.0244	0
 5.45	0.9765	0.0235	0
 5.46	0.9798	0.0202	0
 5.47	0.9846	0.0154	0
 5.48	0.9888	0.0112	0
 5.49	0.9883	0.0117	0
 5.50	0.9777	0.0223	0
 5.51	0.9495	0.0505	0
 5.52	0.9004	0.0996	0
 5.53	0.8295	0.1705	0
 5.54	0.7434	0.2566	0
 5.55	0.6511	0.3489	0
 5.56	0.5620	0.4380	0
 5.57	0.4837	0.5163	0
 5.58	0.4183	0.5817	0
 5.59	0.3666	0.6334	0
 5.60	0.3278	0.6722	0
 5.61	0.3003	0.6997	0
 5.62	0.2832	0.7168	0
 5.63	0.2765	0.7235	0
 5.64	0.2807	0.7193	0
 5.65	0.2985	0.7015	0
 5.66	0.3349	0.6651	0
 5.67	0.4002	0.5998	0
 5.68	0.5073	0.4927	0
 5.69	0.6388	0.3612	0
 5.70	0.6743	0.3257	0
 5.71	0.5646	0.4354	0
 5.72	0.4148	0.5852	0
 5.73	0.2740	0.7260	0
 5.74	0.1702	0.8298	0
 5.75	0.1067	0.8933	0
 5.76	0.0691	0.9309	0
 5.77	0.0466	0.9534	0
 5.78	0.0328	0.9672	0
 5.79	0.0238	0.9762	0
 5.80	0.0178	0.9822	0
 5.81	0.0137	0.9863	0
 5.82	0.0109	0.9891	0
 5.83	0.0088	0.9912	0
 5.84	0.0072	0.9928	0
 5.85	0.0061	0.9939	0
 5.86	0.0051	0.9949	0
 5.87	0.0045	0.9955	0
 5.88	0.0040	0.9960	0
 5.89	0.0035	0.9965	0
 5.90	0.0032	0.9968	0
 5.91	0.0029	0.9971	0
 5.92	0.0027	0.9973	0
 5.93	0.0025	0.9975	0
 5.94	0.0024	0.9976	0
 5.95	0.0023	0.9977	0
 5.96	0.0022	0.9978	0
 5.97	0.0022	0.9978	0
 5.98	0.0022	0.9978	0
 5.99	0.0022	0.9978	0
 6.00	0.0022	0.9978	0
 6.01	0.0023	0.9977	0
 6.02	0.0023	0.9977	0
 6.03	0.0024	0.9976	0
 6.04	0.0026	0.9974	0
 6.05	0.0027	0.9973	0
 6.06	0.0030	0.9970	0
 6.07	0.0034	0.9966	0
 6.08	0.0037	0.9963	0
 6.09	0.0042	0.9958	0
 6.10	0.0049	0.9951	0
 6.11	0.0057	0.9943	0
 6.12	0.0068	0.9932	0
 6.13	0.0084	0.9916	0
 6.14	0.0105	0.9895	0
 6.15	0.0136	0.9864	0
 6.16	0.0182	0.9818	0
 6.17	0.0256	0.9744	0
 6.18	0.0376	0.9624	0
 6.19	0.0593	0.9407	0
 6.20	0.0993	0.9007	0
 6.21	0.1658	0.8342	0
 6.22	0.2332	0.7668	0
 6.23	0.2430	0.7570	0
 6.24	0.2387	0.7613	0
 6.25	0.2189	0.7811	0
 6.26	0.1413	0.8587	0
 6.27	0.0899	0.9101	0
 6.28	0.0626	0.9374	0
 6.29	0.0481	0.9519	0
 6.30	0.0393	0.9607	0
 6.31	0.0336	0.9664	0
 6.32	0.0298	0.9702	0
 6.33	0.0272	0.9728	0
 6.34	0.0255	0.9745	0
 6.35	0.0243	0.9757	0
 6.36	0.0237	0.9763	0
 6.37	0.0234	0.9766	0
 6.38	0.0236	0.9764	0
 6.39	0.0240	0.9760	0
 6.40	0.0247	0.9753	0
 6.41	0.0257	0.9743	0
 6.42	0.0271	0.9729	0
 6.43	0.0288	0.9712	0
 6.44	0.0308	0.9692	0
 6.45	0.0332	0.9668	0
 6.46	0.0361	0.9639	0
 6.47	0.0394	0.9606	0
 6.48	0.0431	0.9569	0
 6.49	0.0475	0.9525	0
 6.50	0.0525	0.9475	0
 6.51	0.0583	0.9417	0
 6.52	0.0653	0.9347	0
 6.53	0.0734	0.9266	0
 6.54	0.0840	0.9160	0
 6.55	0.0970	0.9030	0
 6.56	0.1144	0.8856	0
 6.57	0.1371	0.8629	0
 6.58	0.1687	0.8313	0
 6.59	0.2127	0.7873	0
 6.60	0.2736	0.7264	0
 6.61	0.3592	0.6408	0
 6.62	0.4658	0.5342	0
 6.63	0.5781	0.4219	0
 6.64	0.6690	0.3310	0
 6.65	0.7259	0.2741	0
 6.66	0.7217	0.2783	0
 6.67	0.6111	0.3889	0
 6.68	0.4438	0.5562	0
 6.69	0.3118	0.6882	0
 6.70	0.2256	0.7744	0
 6.71	0.1723	0.8277	0
 6.72	0.1360	0.8640	0
 6.73	0.1120	0.8880	0
 6.74	0.0949	0.9051	0
 6.75	0.0823	0.9177	0
 6.76	0.0734	0.9266	0
 6.77	0.0667	0.9333	0
 6.78	0.0617	0.9383	0
 6.79	0.0580	0.9420	0
 6.80	0.0555	0.9445	0
 6.81	0.0539	0.9461	0
 6.82	0.0531	0.9469	0
 6.83	0.0530	0.9470	0
 6.84	0.0537	0.9463	0
 6.85	0.0551	0.9449	0
 6.86	0.0573	0.9427	0
 6.87	0.0604	0.9396	0
 6.88	0.0646	0.9354	0
 6.89	0.0698	0.9302	0
 6.90	0.0766	0.9234	0
 6.91	0.0853	0.9147	0
 6.92	0.0963	0.9037	0
 6.93	0.1100	0.8900	0
 6.94	0.1280	0.8720	0
 6.95	0.1506	0.8494	0
 6.96	0.1790	0.8210	0
 6.97	0.2153	0.7847	0
 6.98	0.2623	0.7377	0
 6.99	0.3202	0.6798	0
 7.00	0.3898	0.6102	0
 7.01	0.4720	0.5280	0
 7.02	0.5580	0.4420	0
 7.03	0.6270	0.3730	0
 7.04	0.6545	0.3455	0
 7.05	0.6277	0.3723	0
 7.06	0.5739	0.4261	0
 7.07	0.5172	0.4828	0
 7.08	0.4682	0.5318	0
 7.09	0.4316	0.5684	0
 7.10	0.4062	0.5938	0
 7.11	0.3903	0.6097	0
 7.12	0.3833	0.6167	0
 7.13	0.3852	0.6148	0
 7.14	0.3966	0.6034	0
 7.15	0.4178	0.5822	0
 7.16	0.4502	0.5498	0
 7.17	0.4957	0.5043	0
 7.18	0.5595	0.4405	0
 7.19	0.6438	0.3562	0
 7.20	0.7456	0.2544	0
 7.21	0.8445	0.1555	0
 7.22	0.8912	0.1088	0
 7.23	0.8273	0.1727	0
 7.24	0.6905	0.3095	0
 7.25	0.5481	0.4519	0
 7.26	0.4286	0.5714	0
 7.27	0.3348	0.6652	0
 7.28	0.2638	0.7362	0
 7.29	0.2114	0.7886	0
 7.30	0.1718	0.8282	0
 7.31	0.1415	0.8585	0
 7.32	0.1180	0.8820	0
 7.33	0.0999	0.9001	0
 7.34	0.0858	0.9142	0
 7.35	0.0748	0.9252	0
 7.36	0.0660	0.9340	0
 7.37	0.0589	0.9411	0
 7.38	0.0531	0.9469	0
 7.39	0.0484	0.9516	0
 7.40	0.0445	0.9555	0
 7.41	0.0413	0.9587	0
 7.42	0.0386	0.9614	0
 7.43	0.0364	0.9636	0
 7.44	0.0346	0.9654	0
 7.45	0.0332	0.9668	0
 7.46	0.0320	0.9680	0
 7.47	0.0310	0.9690	0
 7.48	0.0303	0.9697	0
 7.49	0.0297	0.9703	0
 7.50	0.0293	0.9707	0
 7.51	0.0290	0.9710	0
 7.52	0.0288	0.9712	0
 7.53	0.0287	0.9713	0
 7.54	0.0287	0.9713	0
 7.55	0.0288	0.9712	0
 7.56	0.0289	0.9711	0
 7.57	0.0290	0.9710	0
 7.58	0.0291	0.9709	0
 7.59	0.0292	0.9708	0
 7.60	0.0292	0.9708	0
 7.61	0.0292	0.9708	0
 7.62	0.0291	0.9709	0
 7.63	0.0288	0.9712	0
 7.64	0.0285	0.9715	0
 7.65	0.0282	0.9718	0
 7.66	0.0277	0.9723	0
 7.67	0.0272	0.9728	0
 7.68	0.0267	0.9733	0
 7.69	0.0261	0.9739	0
 7.70	0.0256	0.9744	0
 7.71	0.0251	0.9749	0
 7.72	0.0246	0.9754	0
 7.73	0.0240	0.9760	0
 7.74	0.0236	0.9764	0
 7.75	0.0232	0.9768	0
 7.76	0.0227	0.9773	0
 7.77	0.0224	0.9776	0
 7.78	0.0220	0.9780	0
 7.79	0.0217	0.9783	0
 7.80	0.0214	0.9786	0
 7.81	0.0211	0.9789	0
 7.82	0.0209	0.9791	0
 7.83	0.0206	0.9794	0
 7.84	0.0204	0.9796	0
 7.85	0.0202	0.9798	0
 7.86	0.0200	0.9800	0
 7.87	0.0198	0.9802	0
 7.88	0.0196	0.9804	0
 7.89	0.0194	0.9806	0
 7.90	0.0191	0.9809	0
 7.91	0.0189	0.9811	0
 7.92	0.0186	0.9814	0
 7.93	0.0183	0.9817	0
 7.94	0.0180	0.9820	0
 7.95	0.0177	0.9823	0
 7.96	0.0173	0.9827	0
 7.97	0.0170	0.9830	0
 7.98	0.0166	0.9834	0
 7.99	0.0162	0.9838	0
 8.00	0.0158	0.9842	0
 8.01	0.0154	0.9846	0
 8.02	0.0150	0.9850	0
 8.03	0.0146	0.9854	0
 8.04	0.0142	0.9858	0
 8.05	0.0138	0.9862	0
 8.06	0.0134	0.9866	0
 8.07	0.0131	0.9869	0
 8.08	0.0128	0.9872	0
 8.09	0.0124	0.9876	0
 8.10	0.0122	0.9878	0
 8.11	0.0120	0.9880	0
 8.12	0.0117	0.9883	0
 8.13	0.0116	0.9884	0
 8.14	0.0115	0.9885	0
 8.15	0.0114	0.9886	0
 8.16	0.0113	0.9887	0
 8.17	0.0113	0.9887	0
 8.18	0.0113	0.9887	0
 8.19	0.0114	0.9886	0
 8.20	0.0115	0.9885	0
 8.21	0.0116	0.9884	0
 8.22	0.0117	0.9883	0
 8.23	0.0120	0.9880	0
 8.24	0.0123	0.9877	0
 8.25	0.0127	0.9873	0
 8.26	0.0131	0.9869	0
 8.27	0.0135	0.9865	0
 8.28	0.0141	0.9859	0
 8.29	0.0148	0.9852	0
 8.30	0.0156	0.9844	0
 8.31	0.0164	0.9836	0
 8.32	0.0174	0.9826	0
 8.33	0.0185	0.9815	0
 8.34	0.0198	0.9802	0
 8.35	0.0213	0.9787	0
 8.36	0.0229	0.9771	0
 8.37	0.0247	0.9753	0
 8.38	0.0267	0.9733	0
 8.39	0.0289	0.9711	0
 8.40	0.0313	0.9687	0
 8.41	0.0338	0.9662	0
 8.42	0.0364	0.9636	0
 8.43	0.0390	0.9610	0
 8.44	0.0415	0.9585	0
 8.45	0.0437	0.9563	0
 8.46	0.0457	0.9543	0
 8.47	0.0473	0.9527	0
 8.48	0.0481	0.9519	0
 8.49	0.0486	0.9514	0
 8.50	0.0483	0.9517	0
 8.51	0.0475	0.9525	0
 8.52	0.0461	0.9539	0
 8.53	0.0443	0.9557	0
 8.54	0.0420	0.9580	0
 8.55	0.0396	0.9604	0
 8.56	0.0370	0.9630	0
 8.57	0.0345	0.9655	0
 8.58	0.0322	0.9678	0
 8.59	0.0300	0.9700	0
 8.60	0.0280	0.9720	0
 8.61	0.0262	0.9738	0
 8.62	0.0246	0.9754	0
 8.63	0.0233	0.9767	0
 8.64	0.0221	0.9779	0
 8.65	0.0210	0.9790	0
 8.66	0.0201	0.9799	0
 8.67	0.0194	0.9806	0
 8.68	0.0188	0.9812	0
 8.69	0.0183	0.9817	0
 8.70	0.0178	0.9822	0
 8.71	0.0175	0.9825	0
 8.72	0.0173	0.9827	0
 8.73	0.0171	0.9829	0
 8.74	0.0170	0.9830	0
 8.75	0.0170	0.9830	0
 8.76	0.0171	0.9829	0
 8.77	0.0172	0.9828	0
 8.78	0.0175	0.9825	0
 8.79	0.0177	0.9823	0
 8.80	0.0180	0.9820	0
 8.81	0.0185	0.9815	0
 8.82	0.0191	0.9809	0
 8.83	0.0196	0.9804	0
 8.84	0.0203	0.9797	0
 8.85	0.0211	0.9789	0
 8.86	0.0219	0.9781	0
 8.87	0.0229	0.9771	0
 8.88	0.0239	0.9761	0
 8.89	0.0250	0.9750	0
 8.90	0.0262	0.9738	0
 8.91	0.0275	0.9725	0
 8.92	0.0289	0.9711	0
 8.93	0.0303	0.9697	0
 8.94	0.0317	0.9683	0
 8.95	0.0332	0.9668	0
 8.96	0.0346	0.9654	0
 8.97	0.0360	0.9640	0
 8.98	0.0373	0.9627	0
 8.99	0.0384	0.9616	0
 9.00	0.0394	0.9606	0
 9.01	0.0402	0.9598	0
 9.02	0.0406	0.9594	0
 9.03	0.0409	0.9591	0
 9.04	0.0409	0.9591	0
 9.05	0.0406	0.9594	0
 9.06	0.0400	0.9600	0
 9.07	0.0392	0.9608	0
 9.08	0.0382	0.9618	0
 9.09	0.0371	0.9629	0
 9.10	0.0359	0.9641	0
 9.11	0.0346	0.9654	0
 9.12	0.0333	0.9667	0
 9.13	0.0321	0.9679	0
 9.14	0.0309	0.9691	0
 9.15	0.0297	0.9703	0
 9.16	0.0287	0.9713	0
 9.17	0.0277	0.9723	0
 9.18	0.0269	0.9731	0
 9.19	0.0261	0.9739	0
 9.20	0.0255	0.9745	0
 9.21	0.0249	0.9751	0
 9.22	0.0244	0.9756	0
 9.23	0.0240	0.9760	0
 9.24	0.0238	0.9762	0
 9.25	0.0235	0.9765	0
 9.26	0.0234	0.9766	0
 9.27	0.0233	0.9767	0
 9.28	0.0233	0.9767	0
 9.29	0.0234	0.9766	0
 9.30	0.0236	0.9764	0
 9.31	0.0239	0.9761	0
 9.32	0.0242	0.9758	0
 9.33	0.0247	0.9753	0
 9.34	0.0252	0.9748	0
 9.35	0.0257	0.9743	0
 9.36	0.0264	0.9736	0
 9.37	0.0272	0.9728	0
 9.38	0.0281	0.9719	0
 9.39	0.0291	0.9709	0
 9.40	0.0302	0.9698	0
 9.41	0.0314	0.9686	0
