# author : Carmelo Arcidiacono
# sources : MICADO FDR document
# date_created  : 2023-02-05
# date_modified : 2023-02-05
# type : detector:quantum_efficiency
# status : Design. guestimated by reading off the graph in ELT-TRE-MCD-56309-0004
# description : H4RG-15 detector quantum efficiency
# wavelength_unit : um
# action : transmission
# changes :
#
wavelength  transmission
 0.20000    0.99990
 0.21000    0.99990
 0.22000    0.99990
 0.23000    0.99990
 0.24000    0.99990
 0.25000    0.99990
 0.26000    0.99990
 0.26990    0.99990
 0.28000    0.99990
 0.29000    0.99990
 0.29990    0.99990
 0.30200    0.99990
 0.30300    0.99990
 0.30400    0.99990
 0.30600    0.99990
 0.30700    0.99990
 0.30800    0.99990
 0.31000    0.99990
 0.31200    0.99990
 0.31400    0.99990
 0.31600    0.99990
 0.31700    0.99990
 0.31800    0.99990
 0.32000    0.99990
 0.32100    0.99990
 0.32200    0.99990
 0.32400    0.99990
 0.32600    0.99990
 0.32800    0.99990
 0.33000    0.99990
 0.33100    0.99990
 0.33200    0.99990
 0.33400    0.99990
 0.33490    0.99990
 0.33600    0.99990
 0.33800    0.99990
 0.33900    0.99990
 0.34000    0.99990
 0.34190    0.99990
 0.34400    0.99990
 0.34600    0.99990
 0.34800    0.99990
 0.35000    0.99990
 0.35200    0.99990
 0.35400    0.99990
 0.35590    0.99990
 0.35800    0.99990
 0.36000    0.99990
 0.36200    0.99990
 0.36400    0.99990
 0.36600    0.99990
 0.36800    0.99990
 0.37000    0.99990
 0.37200    0.99990
 0.37400    0.99990
 0.37600    0.99990
 0.37800    0.99990
 0.38000    0.99990
 0.38200    0.99990
 0.38400    0.99990
 0.38600    0.99990
 0.38700    0.99990
 0.38800    0.99990
 0.39000    0.99990
 0.39100    0.99990
 0.39200    0.99990
 0.39400    0.98089
 0.39500    0.96624
 0.39600    0.95159
 0.39800    0.92228
 0.39990    0.89444
 0.40100    0.87833
 0.40200    0.86367
 0.40300    0.84902
 0.40400    0.83437
 0.40500    0.81972
 0.40600    0.80506
 0.40700    0.79041
 0.40800    0.77576
 0.40900    0.76111
 0.41000    0.74645
 0.41100    0.73400
 0.41200    0.72620
 0.41300    0.71841
 0.41400    0.71061
 0.41500    0.70282
 0.41600    0.69503
 0.41700    0.68723
 0.41800    0.67944
 0.41900    0.67106
 0.42000    0.66222
 0.42100    0.65337
 0.42200    0.64453
 0.42300    0.63568
 0.42400    0.62683
 0.42500    0.61799
 0.42600    0.60914
 0.42700    0.60029
 0.42800    0.59145
 0.42900    0.58260
 0.43000    0.57627
 0.43100    0.57032
 0.43200    0.56437
 0.43300    0.55842
 0.43400    0.55247
 0.43500    0.54652
 0.43600    0.54057
 0.43700    0.53462
 0.43800    0.52867
 0.43900    0.52272
 0.44000    0.51677
 0.44100    0.51082
 0.44200    0.50569
 0.44300    0.50303
 0.44400    0.50036
 0.44500    0.49770
 0.44600    0.49503
 0.44700    0.49237
 0.44800    0.48971
 0.44900    0.48704
 0.45000    0.48438
 0.45100    0.48171
 0.45200    0.47905
 0.45300    0.47734
 0.45400    0.47636
 0.45500    0.47538
 0.45600    0.47439
 0.45700    0.47341
 0.45800    0.47243
 0.45900    0.47145
 0.46000    0.47094
 0.46100    0.47056
 0.46200    0.47019
 0.46300    0.46982
 0.46400    0.46944
 0.46500    0.46907
 0.46600    0.46870
 0.46700    0.46832
 0.46800    0.46795
 0.46900    0.46762
 0.47000    0.46793
 0.47100    0.46824
 0.47200    0.46856
 0.47300    0.46887
 0.47400    0.46918
 0.47500    0.46949
 0.47600    0.46980
 0.47700    0.47011
 0.47800    0.47043
 0.47900    0.47074
 0.48000    0.47105
 0.48100    0.47175
 0.48200    0.47300
 0.48300    0.47425
 0.48400    0.47550
 0.48500    0.47674
 0.48600    0.47799
 0.48700    0.47924
 0.48800    0.48048
 0.48900    0.48214
 0.49000    0.48401
 0.49100    0.48588
 0.49200    0.48775
 0.49300    0.48962
 0.49400    0.49150
 0.49500    0.49337
 0.49600    0.49524
 0.49700    0.49711
 0.49800    0.49898
 0.49900    0.50086
 0.50000    0.50273
 0.50100    0.50460
 0.50200    0.50686
 0.50290    0.51438
 0.50400    0.52358
 0.50500    0.53193
 0.50600    0.54029
 0.50700    0.54865
 0.50800    0.55701
 0.50900    0.56536
 0.51000    0.57372
 0.51100    0.58208
 0.51190    0.58842
 0.51300    0.59242
 0.51400    0.59606
 0.51500    0.59970
 0.51600    0.60334
 0.51690    0.60661
 0.51800    0.61062
 0.51900    0.61425
 0.52000    0.61789
 0.52100    0.62153
 0.52200    0.62517
 0.52300    0.62881
 0.52400    0.63481
 0.52500    0.64183
 0.52590    0.64814
 0.52700    0.65586
 0.52800    0.66287
 0.52900    0.66989
 0.53000    0.67690
 0.53090    0.68322
 0.53200    0.69067
 0.53300    0.69741
 0.53400    0.70414
 0.53490    0.71021
 0.53600    0.71762
 0.53700    0.72435
 0.53800    0.73109
 0.53900    0.73782
 0.53990    0.74388
 0.54100    0.75173
 0.54200    0.76047
 0.54300    0.76921
 0.54400    0.77795
 0.54490    0.78582
 0.54600    0.79544
 0.54700    0.80236
 0.54800    0.80654
 0.54890    0.81032
 0.55000    0.81492
 0.55100    0.81911
 0.55200    0.82330
 0.55300    0.82749
 0.55390    0.83126
 0.55500    0.83587
 0.55600    0.84006
 0.55700    0.84425
 0.55800    0.84844
 0.55900    0.85262
 0.56000    0.85681
 0.56100    0.86053
 0.56200    0.86413
 0.56290    0.86737
 0.56400    0.87134
 0.56500    0.87494
 0.56600    0.87854
 0.56700    0.88215
 0.56790    0.88539
 0.56900    0.88935
 0.57000    0.89296
 0.57100    0.89656
 0.57200    0.90016
 0.57300    0.90376
 0.57400    0.90737
 0.57500    0.91097
 0.57600    0.91457
 0.57690    0.91782
 0.57800    0.92121
 0.57900    0.92308
 0.58000    0.92495
 0.58100    0.92682
 0.58190    0.92851
 0.58300    0.93056
 0.58400    0.93244
 0.58500    0.93431
 0.58590    0.93599
 0.58700    0.93805
 0.58800    0.93889
 0.58900    0.93910
 0.59000    0.93930
 0.59090    0.93949
 0.59200    0.93972
 0.59300    0.93993
 0.59400    0.94014
 0.59500    0.94034
 0.59590    0.94053
 0.59700    0.94076
 0.59800    0.94097
 0.59900    0.94117
 0.59990    0.94136
 0.60100    0.94159
 0.60200    0.94180
 0.60300    0.94201
 0.60400    0.94221
 0.60490    0.94237
 0.60600    0.94185
 0.60700    0.94138
 0.60800    0.94092
 0.60900    0.94045
 0.61000    0.93998
 0.61100    0.93951
 0.61200    0.93905
 0.61300    0.93858
 0.61400    0.93811
 0.61500    0.93764
 0.61600    0.93717
 0.61700    0.93671
 0.61800    0.93624
 0.61900    0.93577
 0.62000    0.93530
 0.62100    0.93458
 0.62200    0.93369
 0.62300    0.93279
 0.62400    0.93190
 0.62500    0.93101
 0.62600    0.93012
 0.62700    0.92923
 0.62800    0.92834
 0.62900    0.92745
 0.63000    0.92656
 0.63100    0.92567
 0.63200    0.92477
 0.63300    0.92388
 0.63400    0.92299
 0.63500    0.92191
 0.63600    0.92083
 0.63700    0.91976
 0.63800    0.91868
 0.63900    0.91760
 0.64000    0.91652
 0.64100    0.91545
 0.64200    0.91437
 0.64300    0.91329
 0.64400    0.91222
 0.64500    0.91114
 0.64600    0.91006
 0.64700    0.90898
 0.64800    0.90791
 0.64900    0.90683
 0.65000    0.90575
 0.65100    0.90468
 0.65200    0.90360
 0.65300    0.90252
 0.65400    0.90144
 0.65500    0.90037
 0.65600    0.89923
 0.65700    0.89806
 0.65800    0.89689
 0.65900    0.89572
 0.66000    0.89455
 0.66100    0.89338
 0.66200    0.89221
 0.66300    0.89104
 0.66400    0.88987
 0.66500    0.88870
 0.66600    0.88753
 0.66700    0.88636
 0.66800    0.88519
 0.66900    0.88402
 0.67000    0.88285
 0.67100    0.88176
 0.67200    0.88124
 0.67300    0.88072
 0.67400    0.88020
 0.67500    0.87968
 0.67600    0.87916
 0.67700    0.87864
 0.67800    0.87812
 0.67900    0.87760
 0.68000    0.87708
 0.68100    0.87656
 0.68200    0.87605
 0.68300    0.87553
 0.68400    0.87501
 0.68500    0.87449
 0.68600    0.87397
 0.68700    0.87345
 0.68800    0.87293
 0.68900    0.87241
 0.69000    0.87189
 0.69100    0.87137
 0.69200    0.87085
 0.69300    0.87033
 0.69400    0.86981
 0.69500    0.86953
 0.69600    0.86929
 0.69700    0.86906
 0.69800    0.86883
 0.69900    0.86859
 0.70000    0.86836
 0.70100    0.86812
 0.70200    0.86789
 0.70300    0.86766
 0.70400    0.86742
 0.70500    0.86719
 0.70600    0.86696
 0.70700    0.86672
 0.70800    0.86649
 0.70900    0.86626
 0.71000    0.86613
 0.71100    0.86626
 0.71200    0.86639
 0.71300    0.86652
 0.71400    0.86665
 0.71500    0.86678
 0.71600    0.86691
 0.71700    0.86703
 0.71800    0.86716
 0.71900    0.86729
 0.72000    0.86742
 0.72100    0.86755
 0.72200    0.86768
 0.72300    0.86781
 0.72400    0.86794
 0.72500    0.86807
 0.72600    0.86820
 0.72700    0.86833
 0.72800    0.86846
 0.72900    0.86859
 0.73000    0.86872
 0.73100    0.86885
 0.73200    0.86898
 0.73300    0.86911
 0.73400    0.86957
 0.73500    0.87004
 0.73600    0.87051
 0.73700    0.87098
 0.73800    0.87145
 0.73900    0.87191
 0.74000    0.87238
 0.74100    0.87285
 0.74200    0.87332
 0.74300    0.87379
 0.74400    0.87425
 0.74500    0.87472
 0.74600    0.87519
 0.74700    0.87566
 0.74800    0.87613
 0.74900    0.87659
 0.75000    0.87706
 0.75100    0.87753
 0.75200    0.87800
 0.75300    0.87847
 0.75400    0.87895
 0.75500    0.87943
 0.75600    0.87990
 0.75700    0.88038
 0.75800    0.88086
 0.75900    0.88133
 0.76000    0.88181
 0.76100    0.88229
 0.76200    0.88276
 0.76300    0.88324
 0.76400    0.88372
 0.76500    0.88419
 0.76600    0.88467
 0.76700    0.88515
 0.76800    0.88562
 0.76900    0.88610
 0.77000    0.88658
 0.77100    0.88705
 0.77200    0.88753
 0.77300    0.88801
 0.77400    0.88849
 0.77500    0.88896
 0.77600    0.88944
 0.77700    0.88992
 0.77800    0.89039
 0.77900    0.89087
 0.78000    0.89135
 0.78100    0.89182
 0.78200    0.89230
 0.78300    0.89278
 0.78400    0.89325
 0.78500    0.89373
 0.78600    0.89429
 0.78700    0.89491
 0.78800    0.89554
 0.78900    0.89616
 0.79000    0.89678
 0.79100    0.89741
 0.79200    0.89803
 0.79300    0.89866
 0.79400    0.89928
 0.79500    0.89990
 0.79600    0.90053
 0.79700    0.90115
 0.79800    0.90177
 0.79900    0.90240
 0.80000    0.90302
 0.80100    0.90365
 0.80200    0.90427
 0.80300    0.90489
 0.80400    0.90552
 0.80500    0.90614
 0.80600    0.90676
 0.80700    0.90739
 0.80800    0.90801
 0.80900    0.90864
 0.81000    0.90926
 0.81100    0.90988
 0.81200    0.91051
 0.81300    0.91113
 0.81400    0.91175
 0.81500    0.91238
 0.81600    0.91300
 0.81700    0.91363
 0.81800    0.91425
 0.81900    0.91481
 0.82000    0.91532
 0.82100    0.91582
 0.82200    0.91633
 0.82300    0.91684
 0.82400    0.91734
 0.82500    0.91785
 0.82600    0.91836
 0.82700    0.91886
 0.82800    0.91937
 0.82900    0.91988
 0.83000    0.92038
 0.83100    0.92089
 0.83200    0.92140
 0.83300    0.92190
 0.83400    0.92241
 0.83500    0.92292
 0.83600    0.92343
 0.83700    0.92393
 0.83800    0.92444
 0.83900    0.92495
 0.84000    0.92545
 0.84100    0.92596
 0.84200    0.92647
 0.84300    0.92697
 0.84400    0.92748
 0.84500    0.92799
 0.84600    0.92849
 0.84700    0.92900
 0.84800    0.92951
 0.84900    0.93001
 0.85000    0.93052
 0.85100    0.93103
 0.85200    0.93154
 0.85300    0.93204
 0.85400    0.93255
 0.85500    0.93306
 0.85600    0.93356
 0.85700    0.93407
 0.85800    0.93458
 0.85900    0.93508
 0.86000    0.93559
 0.86100    0.93610
 0.86200    0.93660
 0.86300    0.93711
 0.86400    0.93762
 0.86500    0.93812
 0.86600    0.93863
 0.86700    0.93914
 0.86800    0.93965
 0.86900    0.94015
 0.87000    0.94066
 0.87100    0.94117
 0.87200    0.94167
 0.87300    0.94218
 0.87400    0.94269
 0.87500    0.94319
 0.87600    0.94370
 0.87700    0.94421
 0.87800    0.94471
 0.87900    0.94522
 0.88000    0.94573
 0.88100    0.94623
 0.88200    0.94674
 0.88300    0.94725
 0.88400    0.94776
 0.88500    0.94826
 0.88600    0.94877
 0.88700    0.94928
 0.88800    0.94978
 0.88900    0.95029
 0.89000    0.95080
 0.89100    0.95130
 0.89200    0.95181
 0.89300    0.95232
 0.89400    0.95282
 0.89500    0.95333
 0.89600    0.95384
 0.89700    0.95434
 0.89800    0.95485
 0.89900    0.95536
 0.90000    0.95586
 0.90100    0.95637
 0.90200    0.95688
 0.90300    0.95739
 0.90400    0.95789
 0.90500    0.95840
 0.90600    0.95891
 0.90700    0.95941
 0.90800    0.95992
 0.90900    0.96043
 0.91000    0.96093
 0.91100    0.96144
 0.91200    0.96184
 0.91300    0.96203
 0.91400    0.96222
 0.91500    0.96241
 0.91600    0.96261
 0.91700    0.96280
 0.91800    0.96299
 0.91900    0.96318
 0.92000    0.96337
 0.92100    0.96357
 0.92200    0.96376
 0.92300    0.96395
 0.92400    0.96414
 0.92500    0.96434
 0.92600    0.96453
 0.92700    0.96472
 0.92800    0.96491
 0.92900    0.96510
 0.93000    0.96530
 0.93100    0.96549
 0.93200    0.96568
 0.93300    0.96587
 0.93400    0.96606
 0.93500    0.96626
 0.93600    0.96645
 0.93700    0.96662
 0.93800    0.96662
 0.93900    0.96662
 0.94000    0.96662
 0.94100    0.96662
 0.94200    0.96662
 0.94300    0.96662
 0.94400    0.96662
 0.94500    0.96662
 0.94600    0.96662
 0.94700    0.96662
 0.94800    0.96662
 0.94900    0.96662
 0.95000    0.96662
 0.95100    0.96662
 0.95200    0.96662
 0.95300    0.96662
 0.95400    0.96662
 0.95500    0.96662
 0.95600    0.96662
 0.95700    0.96662
 0.95800    0.96662
 0.95900    0.96662
 0.96000    0.96662
 0.96100    0.96665
 0.96200    0.96668
 0.96300    0.96671
 0.96400    0.96674
 0.96500    0.96678
 0.96600    0.96681
 0.96700    0.96684
 0.96800    0.96688
 0.96900    0.96691
 0.97000    0.96694
 0.97100    0.96697
 0.97200    0.96701
 0.97300    0.96704
 0.97400    0.96707
 0.97500    0.96711
 0.97600    0.96714
 0.97700    0.96717
 0.97800    0.96720
 0.97900    0.96724
 0.98000    0.96727
 0.98100    0.96730
 0.98200    0.96734
 0.98300    0.96737
 0.98400    0.96740
 0.98500    0.96743
 0.98600    0.96747
 0.98700    0.96750
 0.98800    0.96753
 0.98900    0.96756
 0.99000    0.96760
 0.99100    0.96763
 0.99200    0.96766
 0.99300    0.96770
 0.99400    0.96773
 0.99500    0.96776
 0.99600    0.96779
 0.99700    0.96783
 0.99800    0.96760
 0.99900    0.96734
 1.00000    0.96708
 1.00090    0.96685
 1.00200    0.96657
 1.00300    0.96631
 1.00400    0.96605
 1.00500    0.96580
 1.00590    0.96557
 1.00700    0.96528
 1.00800    0.96503
 1.00900    0.96477
 1.01000    0.96451
 1.01090    0.96428
 1.01200    0.96400
 1.01300    0.96374
 1.01390    0.96351
 1.01500    0.96323
 1.01600    0.96297
 1.01700    0.96272
 1.01800    0.96246
 1.01890    0.96223
 1.02000    0.96194
 1.02100    0.96169
 1.02200    0.96143
 1.02300    0.96117
 1.02400    0.96092
 1.02500    0.96066
 1.02600    0.96040
 1.02700    0.96015
 1.02800    0.95989
 1.02900    0.95963
 1.03000    0.95938
 1.03100    0.95923
 1.03200    0.95910
 1.03300    0.95897
 1.03400    0.95883
 1.03500    0.95870
 1.03600    0.95857
 1.03700    0.95844
 1.03800    0.95830
 1.03890    0.95819
 1.04000    0.95804
 1.04100    0.95791
 1.04200    0.95777
 1.04300    0.95764
 1.04400    0.95751
 1.04500    0.95738
 1.04600    0.95725
 1.04700    0.95711
 1.04800    0.95698
 1.04900    0.95685
 1.05000    0.95672
 1.05100    0.95658
 1.05200    0.95645
 1.05300    0.95632
 1.05400    0.95619
 1.05500    0.95605
 1.05600    0.95592
 1.05700    0.95579
 1.05800    0.95566
 1.05900    0.95552
 1.06000    0.95539
 1.06100    0.95526
 1.06190    0.95514
 1.06300    0.95500
 1.06400    0.95486
 1.06500    0.95473
 1.06600    0.95460
 1.06700    0.95447
 1.06800    0.95433
 1.06900    0.95420
 1.07000    0.95407
 1.07100    0.95394
 1.07200    0.95380
 1.07300    0.95367
 1.07400    0.95354
 1.07500    0.95341
 1.07600    0.95327
 1.07700    0.95314
 1.07800    0.95301
 1.07900    0.95288
 1.08000    0.95275
 1.08100    0.95261
 1.08200    0.95248
 1.08300    0.95235
 1.08400    0.95222
 1.08500    0.95208
 1.08600    0.95195
 1.08700    0.95182
 1.08800    0.95169
 1.08900    0.95155
 1.08990    0.95144
 1.09100    0.95129
 1.09200    0.95116
 1.09300    0.95102
 1.09400    0.95089
 1.09500    0.95078
 1.09600    0.95067
 1.09700    0.95056
 1.09800    0.95045
 1.09900    0.95035
 1.10000    0.95024
 1.10100    0.95013
 1.10200    0.95002
 1.10300    0.94991
 1.10400    0.94980
 1.10500    0.94970
 1.10600    0.94959
 1.10700    0.94948
 1.10800    0.94937
 1.10900    0.94926
 1.11000    0.94915
 1.11100    0.94905
 1.11200    0.94894
 1.11290    0.94884
 1.11400    0.94872
 1.11500    0.94861
 1.11600    0.94850
 1.11700    0.94840
 1.11800    0.94829
 1.11900    0.94818
 1.12000    0.94807
 1.12100    0.94796
 1.12200    0.94785
 1.12300    0.94775
 1.12400    0.94764
 1.12500    0.94753
 1.12600    0.94742
 1.12700    0.94731
 1.12800    0.94720
 1.12900    0.94710
 1.13000    0.94699
 1.13100    0.94688
 1.13200    0.94677
 1.13300    0.94666
 1.13400    0.94655
 1.13500    0.94645
 1.13600    0.94634
 1.13700    0.94623
 1.13800    0.94612
 1.13900    0.94601
 1.14000    0.94590
 1.14090    0.94581
 1.14200    0.94569
 1.14300    0.94558
 1.14400    0.94547
 1.14500    0.94537
 1.14600    0.94526
 1.14700    0.94515
 1.14800    0.94504
 1.14900    0.94494
 1.15000    0.94483
 1.15100    0.94472
 1.15200    0.94461
 1.15300    0.94451
 1.15400    0.94440
 1.15500    0.94429
 1.15600    0.94418
 1.15700    0.94407
 1.15800    0.94397
 1.15900    0.94386
 1.16000    0.94375
 1.16100    0.94364
 1.16200    0.94354
 1.16300    0.94343
 1.16400    0.94332
 1.16500    0.94321
 1.16600    0.94311
 1.16700    0.94300
 1.16800    0.94289
 1.16900    0.94278
 1.17000    0.94268
 1.17100    0.94257
 1.17200    0.94246
 1.17300    0.94235
 1.17400    0.94225
 1.17500    0.94214
 1.17600    0.94203
 1.17700    0.94192
 1.17800    0.94182
 1.17900    0.94171
 1.18000    0.94160
 1.18100    0.94149
 1.18200    0.94138
 1.18300    0.94128
 1.18400    0.94117
 1.18500    0.94106
 1.18600    0.94095
 1.18700    0.94085
 1.18800    0.94074
 1.18900    0.94063
 1.19000    0.94052
 1.19100    0.94042
 1.19190    0.94032
 1.19300    0.94020
 1.19400    0.94009
 1.19500    0.93999
 1.19600    0.93989
 1.19700    0.93979
 1.19800    0.93969
 1.19900    0.93959
 1.20000    0.93950
 1.20100    0.93940
 1.20200    0.93930
 1.20300    0.93920
 1.20400    0.93911
 1.20490    0.93902
 1.20600    0.93891
 1.20700    0.93881
 1.20790    0.93873
 1.20900    0.93862
 1.21000    0.93852
 1.21090    0.93843
 1.21200    0.93833
 1.21300    0.93823
 1.21400    0.93813
 1.21490    0.93804
 1.21600    0.93794
 1.21700    0.93784
 1.21790    0.93775
 1.21900    0.93764
 1.22000    0.93755
 1.22090    0.93746
 1.22200    0.93735
 1.22300    0.93725
 1.22400    0.93716
 1.22500    0.93706
 1.22600    0.93696
 1.22700    0.93686
 1.22790    0.93678
 1.22900    0.93667
 1.23000    0.93657
 1.23090    0.93648
 1.23200    0.93638
 1.23300    0.93628
 1.23390    0.93619
 1.23500    0.93608
 1.23600    0.93599
 1.23700    0.93589
 1.23790    0.93580
 1.23900    0.93569
 1.24000    0.93560
 1.24090    0.93551
 1.24200    0.93540
 1.24300    0.93530
 1.24390    0.93522
 1.24500    0.93511
 1.24600    0.93501
 1.24700    0.93491
 1.24800    0.93482
 1.24900    0.93472
 1.25000    0.93462
 1.25090    0.93453
 1.25200    0.93442
 1.25300    0.93433
 1.25390    0.93424
 1.25500    0.93413
 1.25600    0.93403
 1.25690    0.93395
 1.25800    0.93392
 1.25900    0.93394
 1.26000    0.93396
 1.26090    0.93397
 1.26200    0.93399
 1.26300    0.93401
 1.26390    0.93402
 1.26500    0.93404
 1.26600    0.93406
 1.26690    0.93408
 1.26800    0.93410
 1.26900    0.93411
 1.27000    0.93413
 1.27090    0.93415
 1.27200    0.93416
 1.27300    0.93418
 1.27390    0.93420
 1.27500    0.93422
 1.27600    0.93423
 1.27690    0.93425
 1.27800    0.93427
 1.27900    0.93429
 1.27990    0.93430
 1.28100    0.93432
 1.28200    0.93434
 1.28300    0.93436
 1.28390    0.93437
 1.28500    0.93439
 1.28600    0.93441
 1.28690    0.93442
 1.28800    0.93444
 1.28900    0.93446
 1.28990    0.93447
 1.29100    0.93449
 1.29200    0.93451
 1.29300    0.93453
 1.29390    0.93454
 1.29500    0.93456
 1.29600    0.93458
 1.29690    0.93460
 1.29800    0.93461
 1.29900    0.93463
 1.29990    0.93465
 1.30100    0.93467
 1.30200    0.93468
 1.30300    0.93470
 1.30400    0.93472
 1.30500    0.93474
 1.30600    0.93475
 1.30690    0.93477
 1.30800    0.93479
 1.30900    0.93481
 1.30990    0.93482
