# author : Miguel Verdugo
# source : skycalc_ipy tool for standard Armazones conditions
# date_created : 2020-10-29
# date_modified : 2020-10-29
# status : Design
# type : atmosphere:ter_curve
# pwv : 2.5
# airmass : 1.2
# wdelta : 10
# wmin : 300
# wmax : 15000
# season : entire year
# time : entire night
# action : transmission
# wavelength_unit : um
# emission_unit : ph s-1 m-2 um-1 arcsec-2
# changes :
# - 2020-10-29 (MV) Created file
wavelength  transmission    emission
0.300      0.0187          12.1
0.305      0.0870          70.8
0.310      0.1953         149.2
0.315      0.2980         257.1
0.320      0.3551         317.1
0.325      0.4101         358.6
0.330      0.4768         488.1
0.335      0.5023         439.5
0.340      0.5230         440.5
0.345      0.5442         391.1
0.350      0.5641         427.0
0.355      0.5812         445.3
0.360      0.5957         403.7
0.365      0.6134         441.2
0.370      0.6286         480.7
0.375      0.6427         413.0
0.380      0.6550         456.3
0.385      0.6691         410.9
0.390      0.6815         480.5
0.395      0.6932         461.7
0.400      0.7043         649.1
0.405      0.7155         654.6
0.410      0.7261         619.4
0.415      0.7364         601.6
0.420      0.7460         587.8
0.425      0.7552         587.1
0.430      0.7641         471.3
0.435      0.7724         565.1
0.440      0.7801         597.8
0.445      0.7874         623.6
0.450      0.7948         656.4
0.455      0.8018         635.3
0.460      0.8076         633.4
0.465      0.8139         621.2
0.470      0.8191         611.0
0.475      0.8221         639.7
0.480      0.8264         645.1
0.485      0.8337         605.2
0.490      0.8388         616.1
0.495      0.8430         621.2
0.500      0.8454         589.5
0.505      0.8468         581.4
0.510      0.8517         584.3
0.515      0.8552         573.3
0.520      0.8578         586.4
0.525      0.8585         601.0
0.530      0.8584         588.3
0.535      0.8607         578.7
0.540      0.8636         550.3
0.545      0.8649         571.1
0.550      0.8668         579.3
0.555      0.8681         587.7
0.560      0.8677        1411.5
0.565      0.8662         580.9
0.570      0.8635         572.1
0.575      0.8621         581.2
0.580      0.8672         578.0
0.585      0.8752         606.3
0.590      0.8744         771.8
0.595      0.8754         616.7
0.600      0.8773         575.9
0.605      0.8801         569.2
0.610      0.8845         556.9
0.615      0.8889         571.9
0.620      0.8918         577.0
0.625      0.8931         640.1
0.630      0.8843        1220.0
0.635      0.9002         793.3
0.640      0.9067         543.8
0.645      0.9104         565.8
0.650      0.9112         581.5
0.655      0.9158         598.1
0.660      0.9202         560.8
0.665      0.9235         520.8
0.670      0.9265         500.5
0.675      0.9291         490.5
0.680      0.9314         484.2
0.685      0.8937         695.2
0.690      0.8494         508.6
0.695      0.9236         628.0
0.700      0.9335         523.1
0.705      0.9371         493.2
0.710      0.9409         475.0
0.715      0.9369         478.7
0.720      0.9045         438.6
0.725      0.9126         807.6
0.730      0.9224        1008.7
0.735      0.9427         978.5
0.740      0.9483         605.9
0.745      0.9510         621.5
0.750      0.9522         597.9
0.755      0.9537         758.2
0.760      0.6445         408.5
0.765      0.6643         406.5
0.770      0.9403         949.2
0.775      0.9563        1032.6
0.780      0.9572        1279.1
0.785      0.9577        1225.2
0.790      0.9550        1279.7
0.795      0.9566        1031.8
0.800      0.9572        1062.5
0.805      0.9582         928.1
0.810      0.9569         587.6
0.815      0.9213         526.1
0.820      0.9291         503.3
0.825      0.9258         505.6
0.830      0.9318        1504.8
0.835      0.9561        1622.4
0.840      0.9622        1477.0
0.845      0.9651        1755.0
0.850      0.9655         939.7
0.855      0.9662         821.0
0.860      0.9673         749.6
0.865      0.9682        1725.7
0.870      0.9688         836.9
0.875      0.9693        1704.3
0.880      0.9695        1432.0
0.885      0.9694        2846.9
0.890      0.9691        2849.0
0.895      0.9429        1750.7
0.900      0.8994        1256.0
0.905      0.9311         943.8
0.910      0.9139         733.6
0.915      0.9149         693.5
0.920      0.9339         606.6
0.925      0.9490         632.6
0.930      0.8367        1721.1
0.935      0.6415        1103.4
0.940      0.8002        2474.9
0.945      0.7388        1692.8
0.950      0.7700        2111.3
0.955      0.8007        1139.2
0.960      0.8462         752.9
0.965      0.8803         745.5
0.970      0.9471        2907.6
0.975      0.9237         915.1
0.980      0.9457        3755.6
0.985      0.9658        2868.4
0.990      0.9741        2959.7
0.995      0.9760        4686.7
1.000      0.9762        3317.4
1.005      0.9769        2174.3
1.010      0.9766        2169.0
1.015      0.9776        4627.8
1.020      0.9778        5395.2
1.025      0.9777        2059.6
1.030      0.9783        8957.8
1.035      0.9785        2146.1
1.040      0.9785        9481.0
1.045      0.9783        4299.9
1.050      0.9771        1252.6
1.055      0.9750        1842.9
1.060      0.9711        1257.6
1.065      0.9684         793.7
1.070      0.9714        3241.3
1.075      0.9757        6378.5
1.080      0.9764        1625.9
1.085      0.9731       11626.2
1.090      0.9755        2410.1
1.095      0.9667        7198.2
1.100      0.9550        7174.2
1.105      0.9441        4832.9
1.110      0.9129        2257.5
1.115      0.7567        1362.7
1.120      0.6841         406.7
1.125      0.6427         389.7
1.130      0.7299        3694.0
1.135      0.6233        4924.4
1.140      0.8000         758.9
1.145      0.7228       11465.5
1.150      0.7814         933.9
1.155      0.8071        7017.6
1.160      0.8780        6257.7
1.165      0.9364        6288.6
1.170      0.9531        3843.4
1.175      0.9521         976.0
1.180      0.9347        1403.5
1.185      0.9581         911.7
1.190      0.9510         436.4
1.195      0.9667        1027.3
1.200      0.9559        7761.7
1.205      0.9483        4750.9
1.210      0.9600        9107.0
1.215      0.9709        4887.7
1.220      0.9692        2505.2
1.225      0.9718        8330.1
1.230      0.9787        6771.8
1.235      0.9786        6863.0
1.240      0.9785        4005.0
1.245      0.9765         387.1
1.250      0.9717        2759.2
1.255      0.9590        3373.4
1.260      0.9342        6552.3
1.265      0.8810        5929.3
1.270      0.8548       18623.2
1.275      0.9320       13237.6
1.280      0.9639       12951.9
1.285      0.9765        2410.8
1.290      0.9766       11993.4
1.295      0.9730        1984.4
1.300      0.9704        7370.0
1.305      0.9490        2473.9
1.310      0.9434        6468.1
1.315      0.9217        5414.3
1.320      0.9122        1436.3
1.325      0.9050        2941.4
1.330      0.8208        1027.3
1.335      0.8288         599.5
1.340      0.8167         832.2
1.345      0.6994         284.0
1.350      0.3874         194.6
1.355      0.1776         140.3
1.360      0.0618          21.9
1.365      0.0901         412.4
1.370      0.0499         111.9
1.375      0.1744         205.4
1.380      0.1516         132.4
1.385      0.1072        1346.1
1.390      0.2230         705.3
1.395      0.1252          51.7
1.400      0.2135        4270.0
1.405      0.2075         467.5
1.410      0.2695        4915.3
1.415      0.3945       10707.2
1.420      0.3752        7281.9
1.425      0.4585         935.4
1.430      0.4397        1326.6
1.435      0.4974       15738.5
1.440      0.4980         952.9
1.445      0.5287        1218.4
1.450      0.5901       21778.0
1.455      0.7644        9301.7
1.460      0.7811       18443.8
1.465      0.6630        5087.2
1.470      0.6064       12310.0
1.475      0.7292        6751.0
1.480      0.6836       16577.7
1.485      0.7859       21027.8
1.490      0.8437       24355.3
1.495      0.8937        8515.9
1.500      0.9349        1852.3
1.505      0.9230       83446.3
1.510      0.9507        7000.1
1.515      0.9633        2443.8
1.520      0.9717       13810.3
1.525      0.9797       42384.6
1.530      0.9825       16145.4
1.535      0.9789       43264.9
1.540      0.9819       12410.6
1.545      0.9865       29542.4
1.550      0.9892       11454.1
1.555      0.9899       26041.3
1.560      0.9898       18168.6
1.565      0.9894       36414.6
1.570      0.9472        9369.6
1.575      0.9418        5109.5
1.580      0.9473        8901.9
1.585      0.9840       94828.2
1.590      0.9900        4160.3
1.595      0.9896       14120.8
1.600      0.9520         785.5
1.605      0.9423       42872.5
1.610      0.9431       16747.3
1.615      0.9782       45822.5
1.620      0.9883       13390.4
1.625      0.9892       31282.9
1.630      0.9873        9434.8
1.635      0.9847       20262.4
1.640      0.9757       13257.2
1.645      0.9722       19663.4
1.650      0.9702       31958.8
1.655      0.9792        7472.8
1.660      0.9866        2641.2
1.665      0.9584         359.3
1.670      0.9870       78222.7
1.675      0.9868        9268.8
1.680      0.9838         914.8
1.685      0.9820        9746.5
1.690      0.9825       38651.5
1.695      0.9805       15050.1
1.700      0.9834       40811.3
1.705      0.9786         650.0
1.710      0.9740       40312.1
1.715      0.9743         585.5
1.720      0.9740        7416.9
1.725      0.9632       15769.3
1.730      0.9563        4913.0
1.735      0.9656       13897.4
1.740      0.9587       19538.8
1.745      0.9326       21951.7
1.750      0.9645        6994.7
1.755      0.9351        1969.6
1.760      0.9624         319.5
1.765      0.8985       60745.4
1.770      0.9456        6426.5
1.775      0.8948        1930.4
1.780      0.8509        4641.5
1.785      0.7933         476.5
1.790      0.8442       30357.8
1.795      0.7131         351.3
1.800      0.5684       32619.7
1.805      0.5210        6886.6
1.810      0.5001       17244.0
1.815      0.3785         669.9
1.820      0.2403        2354.3
1.825      0.3834        5093.1
1.830      0.1496        1087.1
1.835      0.0827        1295.4
1.840      0.0386        1475.9
1.845      0.1598        4429.2
1.850      0.1084        1456.8
1.855      0.0540        3394.3
1.860      0.1411        2693.8
1.865      0.1649        1549.6
1.870      0.0147        2268.6
1.875      0.0180        4780.5
1.880      0.2278        3120.4
1.885      0.2007        2010.0
1.890      0.2368        2766.6
1.895      0.2781        1819.4
1.900      0.0718        2819.4
1.905      0.0449        3732.2
1.910      0.2052        2517.4
1.915      0.1038        3197.9
1.920      0.2695        4140.3
1.925      0.3360       13785.4
1.930      0.2706        2892.9
1.935      0.4387        6323.0
1.940      0.3620        3010.6
1.945      0.5048        2054.0
1.950      0.5197        3390.8
1.955      0.3353        4871.3
1.960      0.4713        3874.6
1.965      0.5024        5682.7
1.970      0.6506        8312.8
1.975      0.8254       13431.7
1.980      0.8419         882.8
1.985      0.8888        3696.4
1.990      0.9105        1001.7
1.995      0.8635         892.3
2.000      0.4204       18315.6
2.005      0.2477        9698.8
2.010      0.4322        3162.4
2.015      0.3770        4144.4
2.020      0.5382        4963.4
2.025      0.7772        1380.2
2.030      0.8883       13855.1
2.035      0.9358        6865.0
2.040      0.9225       19016.9
2.045      0.9102         436.9
2.050      0.7490        4677.9
2.055      0.6118       14912.5
2.060      0.7751        1527.0
2.065      0.6934        2726.6
2.070      0.7628        2091.1
2.075      0.8370        9487.7
2.080      0.9302         508.6
2.085      0.9274        2349.6
2.090      0.9487        4167.1
2.095      0.9687         274.6
2.100      0.9663         619.4
2.105      0.9841        3197.5
2.110      0.9777        5479.0
2.115      0.9848        1558.7
2.120      0.9791        5626.6
2.125      0.9869        8178.7
2.130      0.9867         811.4
2.135      0.9914        2195.2
2.140      0.9928          56.5
2.145      0.9913          68.0
2.150      0.9795       16816.3
2.155      0.9831        7012.6
2.160      0.9811        2662.2
2.165      0.9744        1275.4
2.170      0.9838        3903.3
2.175      0.9778         439.6
2.180      0.9837       11767.9
2.185      0.9670        5679.5
2.190      0.9845         380.8
2.195      0.9827       14232.4
2.200      0.9300        1364.3
2.205      0.9646        5056.5
2.210      0.9882        5684.3
2.215      0.9782        6027.8
2.220      0.9791         353.9
2.225      0.9761        3339.6
2.230      0.9731        7046.4
2.235      0.9707         635.9
2.240      0.9675         689.1
2.245      0.9516        2541.2
2.250      0.9672        3907.3
2.255      0.9414        1482.3
2.260      0.9352        1707.8
2.265      0.9536        1242.5
2.270      0.9266        2621.4
2.275      0.9207        3550.6
2.280      0.9584        1259.2
2.285      0.9219        2489.8
2.290      0.9202        2791.3
2.295      0.9200        3304.4
2.300      0.9048        3602.7
2.305      0.9147        2978.7
2.310      0.9576        1591.8
2.315      0.9084        4142.8
2.320      0.8786        6347.1
2.325      0.9418        3570.3
2.330      0.9331        3399.8
2.335      0.9398        3057.5
2.340      0.8758        9289.8
2.345      0.8998        6299.9
2.350      0.8268       15995.0
2.355      0.8819        8964.2
2.360      0.9077        6903.9
2.365      0.9231        8479.2
2.370      0.7490       24673.3
2.375      0.8796       11840.9
2.380      0.8930       17092.0
2.385      0.8200       30045.1
2.390      0.8479       28703.3
2.395      0.8770       20369.0
2.400      0.9329       10140.7
2.405      0.8468       34793.0
2.410      0.8602       32660.7
2.415      0.7935       57256.1
2.420      0.7773       64255.2
2.425      0.8668       34054.7
2.430      0.9650        6493.8
2.435      0.6307      123420.1
2.440      0.9683        7006.8
2.445      0.7326       94985.3
2.450      0.6773      117646.2
2.455      0.8373       58210.9
2.460      0.9355       20777.5
2.465      0.7967       83284.8
2.470      0.7167      124612.9
2.475      0.7391      111544.2
2.480      0.6627      148150.5
2.485      0.6069      182249.3
2.490      0.4745      259556.8
2.495      0.5056      250938.5
2.500      0.7447      124966.8
2.505      0.4102      333042.6
2.510      0.4976      288854.9
2.515      0.2494      471438.0
2.520      0.4210      350689.1
2.525      0.2185      517239.6
2.530      0.1232      615609.3
2.535      0.0850      685816.1
2.540      0.1579      609645.8
2.545      0.0209      816773.5
2.550      0.0165      851902.6
2.555      0.0991      731006.3
2.560      0.0268      899314.0
2.565      0.0032      992436.6
2.570      0.0004     1032961.2
2.575      0.0000     1100675.2
2.580      0.0005     1090987.5
2.585      0.0000     1173384.5
2.590      0.0000     1193762.6
2.595      0.0000     1260675.9
2.600      0.0001     1251482.3
2.605      0.0000     1333976.5
2.610      0.0000     1346646.3
2.615      0.0000     1406318.6
2.620      0.0000     1444047.9
2.625      0.0001     1439719.7
2.630      0.0000     1530706.8
2.635      0.0014     1492937.6
2.640      0.0041     1488050.9
2.645      0.0004     1596485.0
2.650      0.0038     1560448.2
2.655      0.0000     1733726.1
2.660      0.0000     1798911.8
2.665      0.0000     1882184.4
2.670      0.0000     1937746.0
2.675      0.0000     1993434.4
2.680      0.0000     2044571.8
2.685      0.0000     2100844.8
2.690      0.0000     2123290.5
2.695      0.0000     2215228.0
2.700      0.0000     2253148.0
2.705      0.0000     2293049.3
2.710      0.0000     2407369.7
2.715      0.0000     2383722.0
2.720      0.0000     2535998.9
2.725      0.0000     2573542.4
2.730      0.0010     2438924.8
2.735      0.0000     2640234.1
2.740      0.0000     2826062.3
2.745      0.0000     2795320.4
2.750      0.0000     2881777.7
2.755      0.0000     3036644.5
2.760      0.0000     3084200.7
2.765      0.0000     3192015.8
2.770      0.0000     3266374.9
2.775      0.0000     3293997.5
2.780      0.0000     3420988.8
2.785      0.0000     3480055.4
2.790      0.0000     3506640.3
2.795      0.0009     3441044.2
2.800      0.0012     3546150.8
2.805      0.0000     3864737.6
2.810      0.0099     3462205.4
2.815      0.0055     3660283.2
2.820      0.0012     3998804.1
2.825      0.0749     3064158.9
2.830      0.1302     2997209.1
2.835      0.0053     4154473.6
2.840      0.0448     3819408.2
2.845      0.2088     2723165.9
2.850      0.0763     3774861.1
2.855      0.0250     4373614.6
2.860      0.1806     3169238.1
2.865      0.2695     2714540.1
2.870      0.1430     3664248.0
2.875      0.3731     2515628.9
2.880      0.3456     2702094.6
2.885      0.3607     2634983.3
2.890      0.2415     3514407.8
2.895      0.6245     1558603.8
2.900      0.2881     3556038.4
2.905      0.2755     3610830.9
2.910      0.6138     1804016.9
2.915      0.4610     2783802.8
2.920      0.5461     2429323.1
2.925      0.3451     3715599.6
2.930      0.7640     1226246.5
2.935      0.7774     1170338.0
2.940      0.5011     2829690.2
2.945      0.4565     3293456.5
2.950      0.6844     1881279.3
2.955      0.4515     3401158.9
2.960      0.6852     1823521.1
2.965      0.7642     1344252.8
2.970      0.2288     5232431.0
2.975      0.3608     4243013.9
2.980      0.4392     3770450.4
2.985      0.7770     1320900.3
2.990      0.8278     1097905.2
2.995      0.5988     2892828.0
3.000      0.7732     1652089.1
3.005      0.5378     3515216.4
3.010      0.6805     2390826.9
3.015      0.7531     1786526.2
3.020      0.3606     5374799.9
3.025      0.6907     2517993.0
3.030      0.7124     2338371.9
3.035      0.4407     4926126.1
3.040      0.5062     4360808.1
3.045      0.6530     3078208.2
3.050      0.4154     5439991.8
3.055      0.3462     6125536.8
3.060      0.7420     2301618.2
3.065      0.5510     4341729.6
3.070      0.5829     4033378.1
3.075      0.6599     3470491.8
3.080      0.5189     5204136.3
3.085      0.5847     4202847.7
3.090      0.6346     3801812.7
3.095      0.3965     6595705.4
3.100      0.6356     3993649.8
3.105      0.3706     7309705.5
3.110      0.4358     6590043.9
3.115      0.5671     5065867.9
3.120      0.8981     1049046.8
3.125      0.5058     6141761.7
3.130      0.6509     4203824.1
3.135      0.9078      995755.0
3.140      0.5690     5585959.4
3.145      0.5523     6026157.0
3.150      0.8088     2159006.8
3.155      0.7091     3703450.5
3.160      0.8347     1786994.2
3.165      0.8935      982233.7
3.170      0.9072     1120506.9
3.175      0.7669     2659189.3
3.180      0.8263     2446824.5
3.185      0.7784     2560926.3
3.190      0.5783     6738945.2
3.195      0.6295     4962632.8
3.200      0.2957    11898095.1
3.205      0.2992    12159251.9
3.210      0.2285    12959780.5
3.215      0.3922    10299776.5
3.220      0.4360     9152381.3
3.225      0.2122    14772683.0
3.230      0.2571    13821943.2
3.235      0.8316     2339270.1
3.240      0.5410     7478077.7
3.245      0.3444    12863202.1
3.250      0.4298     9978100.4
3.255      0.8900     1295118.0
3.260      0.4068    11513628.6
3.265      0.5661     8840529.2
3.270      0.2829    14338854.8
3.275      0.7685     3662508.3
3.280      0.5049    10193828.8
3.285      0.9239     1018384.1
3.290      0.8077     2831382.7
3.295      0.4964    11372669.6
3.300      0.3043    15967167.0
3.305      0.6761     7021551.0
3.310      0.5618     7172941.3
3.315      0.0077    25928827.1
3.320      0.1047    21240613.7
3.325      0.5132     7911674.8
3.330      0.6219     9165317.0
3.335      0.8151     3163687.0
3.340      0.5681    11460496.9
3.345      0.5477    11236884.0
